Timestamp,Fp1,AF3,F7,F3,FC1,FC5,T7,C3,CP1,CP5,P7,P3,Pz,PO3,O1,Oz,O2,PO4,P4,P8,CP6,CP2,C4,T8,FC6,FC2,F4,F8,AF4,Fp2,Fz,Cz
1772819484.9763196,0,-65,15,103,-103,13,172,-33,-37,20,99,-17,-112,17,-17,15,-18,-5,-48,10,155,3,87,4,66,-38,-29,-60,19,86,-189,-115
1772819484.9782727,2,-61,20,99,-104,14,177,-32,-37,21,100,-17,-111,15,-17,13,-20,-7,-50,8,152,4,85,-12,59,-40,-37,-55,40,91,-191,-114
1772819484.9802258,10,-55,24,96,-104,15,179,-32,-37,24,104,-15,-111,16,-15,14,-19,-7,-51,10,152,4,83,-10,53,-45,-44,-58,43,86,-194,-115
1772819484.982179,10,-55,21,96,-104,17,180,-29,-36,27,106,-13,-111,16,-13,15,-16,-6,-50,13,153,3,81,4,53,-48,-45,-68,32,77,-195,-115
1772819484.984132,7,-56,22,101,-104,18,181,-26,-37,29,106,-12,-112,15,-15,13,-18,-7,-51,11,151,2,80,14,52,-51,-46,-65,34,76,-195,-117
1772819484.9860852,4,-56,24,102,-106,18,181,-25,-37,31,111,-11,-114,16,-11,17,-15,-6,-53,11,150,0,78,15,47,-55,-53,-58,34,75,-197,-121
1772819484.9880383,3,-56,24,100,-106,16,177,-24,-36,31,114,-10,-114,18,-8,21,-11,-5,-53,12,150,0,77,15,45,-57,-57,-53,31,75,-199,-120
1772819484.9899914,7,-57,25,103,-105,17,171,-23,-35,29,112,-11,-114,17,-12,16,-17,-8,-53,9,149,1,79,15,48,-55,-56,-50,33,80,-197,-118
1772819484.9919446,12,-60,24,104,-104,22,169,-25,-35,27,111,-12,-114,17,-10,15,-20,-12,-54,6,147,2,80,13,49,-52,-54,-52,36,82,-195,-118
1772819484.9938977,14,-59,24,102,-103,22,171,-28,-36,24,109,-13,-114,18,-9,16,-23,-16,-55,4,149,2,81,12,51,-49,-52,-52,38,81,-192,-116
1772819484.9958508,19,-53,27,100,-102,17,176,-32,-38,21,106,-15,-116,17,-14,8,-32,-21,-58,-1,150,1,82,14,56,-46,-48,-45,42,87,-187,-114
1772819484.997804,21,-49,27,96,-101,12,178,-37,-39,19,107,-16,-117,15,-18,3,-38,-24,-60,-3,149,0,83,16,61,-45,-41,-40,44,94,-184,-114
1772819484.999757,18,-47,22,94,-102,8,174,-37,-40,17,104,-15,-118,13,-22,3,-37,-23,-59,1,149,1,84,18,64,-43,-36,-38,48,97,-184,-115
1772819485.0017102,19,-44,22,103,-104,9,172,-34,-39,17,104,-15,-117,14,-20,7,-33,-21,-59,1,149,1,81,18,61,-45,-36,-48,45,96,-184,-116
1772819485.0036633,23,-45,21,109,-106,17,168,-33,-38,16,103,-15,-117,16,-19,9,-31,-20,-61,0,148,0,78,18,58,-48,-36,-55,45,97,-185,-117
1772819485.0056164,29,-48,17,111,-107,12,167,-33,-38,12,97,-17,-117,15,-21,7,-30,-22,-62,-2,147,-1,79,21,60,-48,-34,-48,50,103,-185,-117
1772819485.0075696,36,-49,17,112,-106,-13,176,-32,-37,12,95,-16,-115,16,-21,6,-31,-24,-61,-2,144,-1,78,18,60,-47,-32,-42,52,107,-186,-116
1772819485.0095227,35,-54,15,111,-104,-21,178,-30,-35,16,96,-14,-113,17,-19,8,-30,-22,-59,2,142,0,77,8,57,-47,-34,-40,54,110,-188,-115
1772819485.0114758,39,-56,17,108,-105,-10,170,-31,-35,18,96,-14,-112,16,-19,6,-32,-22,-60,0,143,0,77,6,55,-48,-35,-38,57,115,-189,-114
1772819485.013429,51,-48,19,106,-109,13,165,-39,-38,16,92,-15,-114,13,-24,1,-40,-26,-62,-7,144,-1,78,8,56,-48,-32,-36,65,116,-189,-115
1772819485.015382,64,-37,23,110,-109,25,165,-42,-40,13,86,-19,-115,11,-28,-3,-45,-29,-63,-10,142,-3,77,1,55,-48,-29,-35,75,108,-187,-115
1772819485.0173352,73,-32,26,114,-107,20,162,-41,-40,13,85,-21,-114,10,-28,-1,-44,-29,-63,-9,140,-4,75,-7,53,-47,-29,-35,72,112,-186,-116
1772819485.0192883,82,-32,22,113,-107,12,155,-42,-42,9,81,-24,-117,7,-33,-4,-44,-29,-63,-5,142,-5,76,-2,54,-46,-29,-32,69,135,-184,-119
1772819485.0212414,91,-29,18,118,-107,9,151,-45,-46,4,73,-29,-120,2,-42,-11,-49,-33,-65,-8,143,-7,78,3,57,-44,-23,-22,72,161,-180,-120
1772819485.0231946,102,-26,16,124,-105,7,148,-48,-48,1,69,-32,-123,-2,-47,-15,-56,-38,-69,-14,141,-10,79,4,59,-42,-17,-15,79,176,-177,-121
1772819485.0251477,114,-23,16,126,-105,3,149,-52,-50,-3,63,-35,-125,-7,-49,-17,-59,-39,-70,-15,140,-10,77,3,61,-42,-14,-14,90,183,-174,-120
1772819485.0271008,120,-20,15,124,-106,0,147,-55,-53,-9,60,-40,-127,-11,-51,-19,-60,-40,-72,-15,139,-12,77,1,61,-44,-14,-12,113,194,-174,-121
1772819485.029054,127,-15,15,120,-105,-1,141,-56,-54,-10,62,-42,-128,-14,-53,-21,-60,-41,-73,-16,138,-13,76,-1,59,-45,-15,-6,117,205,-172,-121
1772819485.031007,135,-10,15,119,-104,-2,139,-56,-54,-8,63,-42,-128,-15,-54,-21,-58,-40,-73,-17,137,-13,76,-2,58,-42,-6,-3,94,205,-170,-120
1772819485.0329602,140,-13,7,117,-106,-4,137,-54,-54,-10,59,-44,-128,-18,-57,-24,-57,-41,-73,-18,137,-12,76,0,65,-42,-1,2,97,211,-170,-120
1772819485.0349133,144,-12,3,119,-107,-3,134,-51,-55,-13,54,-48,-129,-22,-62,-29,-59,-40,-74,-19,137,-14,75,2,72,-43,-1,7,109,219,-169,-121
1772819485.0368664,150,-10,-1,121,-108,-2,132,-52,-57,-15,53,-50,-131,-23,-61,-28,-56,-40,-74,-19,135,-15,72,-1,70,-45,-2,9,115,224,-169,-123
1772819485.0388196,158,-3,4,122,-107,0,133,-54,-60,-14,55,-52,-133,-24,-58,-27,-61,-43,-77,-23,130,-17,70,-4,67,-46,-1,8,119,230,-168,-124
1772819485.0407727,164,6,17,122,-103,2,136,-54,-62,-15,50,-55,-135,-29,-64,-33,-66,-47,-80,-26,127,-19,69,-6,64,-45,-1,9,124,239,-165,-122
1772819485.0427258,176,16,22,124,-101,0,136,-56,-65,-20,45,-60,-138,-36,-72,-39,-66,-49,-81,-27,126,-19,69,-8,60,-44,0,11,129,250,-162,-122
1772819485.044679,184,22,23,127,-102,-2,137,-59,-66,-23,43,-64,-141,-38,-70,-36,-62,-49,-82,-27,125,-21,69,-11,58,-44,-1,9,131,254,-160,-123
1772819485.046632,187,11,21,130,-101,-7,141,-61,-69,-23,40,-66,-144,-41,-71,-34,-62,-51,-83,-26,123,-22,69,-10,63,-42,4,11,135,259,-158,-123
1772819485.0485852,197,1,16,129,-101,-11,135,-63,-71,-24,39,-68,-147,-42,-72,-34,-63,-54,-84,-27,122,-24,71,-15,69,-40,12,18,140,268,-155,-124
1772819485.0505383,213,7,24,129,-99,-7,130,-60,-71,-26,37,-70,-150,-46,-84,-47,-72,-59,-87,-30,121,-26,70,-18,67,-38,17,27,145,276,-151,-125
1772819485.0524914,224,8,32,130,-100,-4,131,-59,-72,-25,41,-70,-153,-48,-89,-53,-81,-64,-92,-33,119,-29,67,-13,63,-39,17,34,151,283,-149,-128
1772819485.0544446,220,5,24,127,-103,-6,132,-59,-74,-25,41,-70,-154,-45,-83,-46,-77,-63,-94,-34,116,-33,66,-8,64,-41,16,37,156,289,-150,-132
1772819485.0563977,217,8,23,126,-104,-5,129,-60,-75,-26,36,-72,-154,-47,-87,-47,-77,-64,-93,-34,114,-33,66,-5,69,-40,20,39,163,297,-151,-133
1772819485.0583508,217,6,30,127,-106,-2,129,-62,-76,-25,37,-72,-154,-49,-87,-47,-75,-64,-93,-33,111,-34,64,-8,71,-40,22,36,163,298,-153,-133
1772819485.060304,221,-3,30,128,-107,0,129,-64,-76,-26,37,-70,-154,-47,-85,-44,-72,-63,-93,-32,110,-33,65,-16,73,-41,23,32,168,298,-156,-133
1772819485.062257,224,-2,30,130,-106,0,133,-65,-75,-25,41,-67,-153,-42,-82,-44,-76,-65,-94,-35,111,-32,67,-24,75,-42,19,24,167,298,-156,-132
1772819485.0642102,228,15,29,128,-107,0,134,-65,-74,-22,47,-65,-153,-38,-80,-47,-83,-67,-96,-39,113,-31,66,-18,73,-43,21,20,149,294,-157,-131
1772819485.0661633,226,25,19,126,-107,-3,125,-62,-72,-21,49,-62,-151,-36,-78,-48,-85,-68,-96,-41,112,-30,65,-12,70,-46,16,26,150,296,-157,-131
1772819485.0681164,200,27,18,127,-107,-4,117,-58,-70,-20,44,-61,-149,-34,-76,-44,-82,-65,-94,-38,113,-30,65,-7,67,-48,9,36,154,297,-157,-131
1772819485.0700696,180,22,24,123,-108,-5,121,-58,-69,-21,41,-60,-148,-33,-75,-42,-80,-64,-92,-36,114,-29,64,-5,68,-49,7,41,159,300,-157,-131
1772819485.0720227,192,19,23,120,-110,-10,129,-59,-68,-19,48,-58,-147,-30,-70,-39,-77,-62,-92,-37,115,-30,63,-7,65,-50,2,30,157,295,-159,-132
1772819485.0739758,220,22,22,120,-111,-13,129,-62,-69,-18,52,-57,-146,-28,-68,-34,-75,-60,-93,-37,115,-31,63,-8,60,-52,-3,23,151,288,-162,-134
1772819485.075929,230,28,25,120,-110,-14,125,-64,-70,-22,45,-59,-145,-29,-71,-35,-77,-61,-93,-37,115,-30,65,-9,60,-50,1,29,137,291,-159,-133
1772819485.077882,228,29,25,120,-108,-15,123,-64,-69,-24,41,-58,-144,-27,-71,-38,-81,-63,-93,-38,115,-29,67,-13,64,-47,6,32,125,295,-158,-131
1772819485.0798352,225,27,19,115,-109,-17,120,-68,-69,-23,43,-57,-144,-26,-67,-37,-80,-64,-92,-38,115,-29,66,-13,68,-47,6,33,139,293,-159,-131
1772819485.0817883,223,19,17,112,-110,-22,125,-68,-70,-22,47,-57,-144,-26,-67,-38,-80,-65,-93,-39,116,-30,66,-12,67,-47,4,36,160,289,-160,-133
1772819485.0837414,226,12,16,119,-110,-24,132,-64,-70,-19,48,-58,-144,-28,-71,-44,-88,-67,-96,-45,111,-30,63,-17,61,-46,5,42,189,291,-159,-134
1772819485.0856946,225,10,7,127,-109,-21,128,-58,-68,-19,46,-56,-144,-25,-66,-39,-86,-65,-95,-44,110,-30,62,-23,62,-44,5,37,187,276,-156,-133
1772819485.0876477,216,15,7,137,-107,-13,123,-52,-66,-21,38,-57,-143,-27,-69,-39,-82,-61,-93,-42,114,-28,65,-18,71,-41,11,31,155,262,-155,-131
1772819485.0896008,209,12,25,139,-106,-3,123,-51,-66,-23,29,-61,-144,-34,-76,-45,-82,-60,-91,-41,116,-27,66,-16,75,-42,10,33,145,274,-157,-129
1772819485.091554,211,2,26,131,-107,-16,122,-53,-65,-20,33,-61,-144,-33,-73,-44,-81,-59,-89,-41,117,-25,67,-14,74,-44,5,37,143,290,-161,-129
1772819485.093507,212,-4,16,127,-107,-36,122,-52,-64,-17,36,-59,-143,-31,-71,-43,-82,-57,-87,-40,119,-22,69,-10,79,-42,7,39,138,295,-164,-128
1772819485.0954602,204,7,20,124,-106,-30,129,-51,-63,-17,33,-60,-142,-32,-75,-44,-82,-55,-85,-37,122,-20,72,-8,79,-40,9,22,127,292,-166,-126
1772819485.0974133,196,15,28,120,-109,-13,132,-56,-65,-19,33,-63,-143,-36,-76,-44,-79,-52,-84,-37,124,-19,73,-7,76,-41,2,14,135,288,-168,-127
1772819485.0993664,199,6,26,121,-112,4,130,-61,-66,-20,31,-66,-144,-38,-74,-40,-73,-50,-83,-37,126,-19,72,-8,69,-42,-4,20,146,283,-169,-129
1772819485.1013196,200,-4,25,129,-108,7,130,-56,-65,-18,36,-65,-144,-41,-78,-45,-77,-51,-82,-37,126,-19,71,-12,62,-43,-3,28,152,279,-165,-128
1772819485.1032727,191,5,25,134,-106,1,128,-52,-65,-17,40,-65,-146,-44,-82,-51,-84,-55,-83,-39,124,-21,72,-11,65,-41,3,34,153,277,-162,-127
1772819485.1052258,190,16,23,135,-107,-4,128,-52,-67,-19,39,-67,-148,-46,-82,-51,-82,-56,-85,-41,123,-22,72,-9,72,-39,8,34,152,274,-161,-127
1772819485.107179,195,17,23,134,-106,-3,128,-53,-68,-23,30,-69,-150,-50,-84,-52,-80,-56,-84,-38,124,-21,72,-16,79,-37,12,35,153,276,-159,-127
1772819485.109132,200,5,22,136,-102,-1,125,-56,-68,-27,23,-72,-148,-52,-85,-50,-78,-54,-82,-35,125,-20,72,-19,79,-35,13,35,153,278,-157,-124
1772819485.1110852,197,-1,25,135,-101,-4,126,-56,-67,-27,26,-72,-146,-53,-85,-49,-76,-54,-81,-34,127,-19,72,-14,76,-35,8,33,152,277,-157,-122
1772819485.1130383,188,4,25,130,-102,-5,127,-57,-66,-25,31,-70,-146,-52,-84,-49,-75,-52,-81,-33,129,-19,72,-9,76,-36,4,32,149,272,-159,-122
1772819485.1149914,181,12,27,125,-103,-1,124,-56,-66,-22,35,-69,-146,-48,-83,-49,-74,-51,-81,-31,130,-19,72,-8,78,-38,4,31,148,264,-161,-124
1772819485.1169446,176,14,27,120,-106,-2,126,-55,-66,-21,39,-66,-145,-45,-79,-44,-69,-49,-79,-30,130,-20,70,-13,75,-43,1,28,156,259,-165,-127
1772819485.1188977,172,17,28,121,-108,0,132,-51,-65,-18,41,-63,-145,-42,-74,-38,-64,-45,-78,-28,129,-21,67,-14,69,-47,-7,18,155,256,-168,-129
1772819485.1208508,169,17,32,128,-107,5,137,-45,-63,-14,44,-60,-144,-41,-73,-38,-64,-44,-77,-28,129,-21,67,-15,68,-48,-6,11,127,250,-168,-130
1772819485.122804,166,9,34,130,-106,6,145,-44,-64,-13,46,-58,-142,-39,-70,-35,-64,-45,-77,-29,130,-20,69,-10,67,-48,-5,8,113,246,-170,-131
1772819485.124757,161,0,29,128,-107,5,143,-45,-62,-11,52,-55,-141,-35,-65,-33,-65,-46,-76,-28,130,-19,71,-5,68,-46,-8,7,113,241,-172,-128
1772819485.1267102,155,-4,23,126,-106,1,133,-48,-60,-9,56,-53,-139,-32,-63,-30,-62,-42,-75,-25,132,-17,73,-1,68,-46,-13,9,114,236,-173,-126
1772819485.1286633,155,-9,25,124,-105,0,135,-49,-59,-10,54,-52,-138,-31,-63,-30,-61,-40,-74,-25,133,-16,73,0,64,-47,-17,12,116,233,-173,-125
1772819485.1306164,149,-17,27,122,-105,3,139,-49,-58,-8,55,-50,-137,-29,-62,-30,-64,-40,-73,-27,132,-15,74,-2,62,-46,-16,13,118,230,-173,-124
1772819485.1325696,140,-21,22,122,-106,2,137,-50,-59,-10,53,-50,-137,-29,-61,-27,-62,-40,-73,-26,133,-15,74,-2,64,-46,-13,12,133,231,-173,-124
1772819485.1345227,138,-12,20,122,-108,2,135,-51,-59,-12,51,-50,-138,-28,-62,-28,-60,-40,-73,-26,134,-14,72,0,65,-46,-16,7,137,234,-172,-125
1772819485.1364758,135,-5,25,124,-108,6,136,-48,-57,-10,53,-49,-137,-26,-60,-27,-60,-39,-73,-27,136,-14,72,-3,68,-45,-12,5,107,226,-170,-124
1772819485.138429,131,-3,30,121,-109,7,135,-46,-56,-9,58,-48,-135,-23,-55,-21,-56,-38,-73,-22,136,-14,71,-9,63,-46,-9,2,95,218,-172,-123
1772819485.140382,130,-9,29,108,-111,5,134,-47,-56,-9,61,-47,-135,-21,-51,-19,-50,-37,-72,-20,138,-13,71,-4,61,-46,-10,2,101,215,-174,-122
1772819485.1423352,134,-20,29,104,-111,4,133,-49,-55,-10,60,-46,-134,-18,-50,-21,-53,-38,-72,-22,139,-12,73,3,65,-47,-9,2,102,214,-175,-121
1772819485.1442883,142,-24,31,110,-109,5,132,-49,-54,-10,60,-44,-132,-15,-47,-21,-55,-37,-72,-25,138,-12,73,-1,66,-47,-4,-3,84,214,-174,-120
1772819485.1462414,145,-18,35,116,-109,8,137,-49,-55,-9,63,-43,-131,-12,-44,-19,-54,-36,-74,-24,136,-13,71,-9,57,-49,-3,-7,72,212,-173,-119
1772819485.1481946,138,-12,32,111,-110,5,144,-51,-57,-9,65,-44,-132,-12,-45,-23,-58,-38,-75,-23,137,-13,71,-5,56,-51,-9,-3,90,211,-174,-120
1772819485.1501477,128,-12,14,106,-111,-1,150,-53,-56,-9,65,-45,-130,-11,-46,-26,-59,-37,-74,-22,140,-12,74,3,65,-49,-11,0,106,206,-174,-121
1772819485.1521008,123,-6,15,109,-110,-1,149,-50,-56,-7,67,-44,-132,-11,-47,-23,-58,-39,-75,-23,138,-13,74,2,65,-47,-11,-3,107,202,-173,-122
1772819485.154054,118,3,30,114,-105,7,144,-46,-57,-6,69,-44,-133,-11,-49,-24,-61,-41,-76,-24,135,-15,72,-5,60,-47,-10,-9,104,197,-170,-122
1772819485.156007,108,-1,36,116,-103,11,143,-46,-56,-5,71,-43,-133,-9,-48,-23,-61,-41,-75,-22,134,-15,74,-9,61,-46,-10,-13,100,193,-169,-121
1772819485.1579602,112,-7,32,114,-104,7,142,-50,-56,-5,76,-42,-134,-6,-42,-20,-58,-40,-75,-21,135,-15,74,-8,63,-45,-11,-12,96,191,-169,-121
1772819485.1599133,115,-11,29,111,-105,5,143,-52,-56,-4,74,-41,-135,-4,-37,-14,-55,-41,-76,-24,134,-16,72,-6,64,-44,-14,-11,97,191,-169,-121
1772819485.1618664,113,-10,29,111,-103,4,146,-52,-56,-4,70,-40,-134,-6,-44,-22,-61,-43,-78,-26,135,-15,73,-3,69,-40,-8,-8,101,189,-167,-118
1772819485.1638196,111,-11,27,109,-103,3,146,-54,-56,-4,69,-40,-133,-6,-48,-25,-59,-41,-78,-20,137,-14,74,-2,72,-39,2,-9,99,175,-167,-118
1772819485.1657727,108,-15,26,105,-105,5,148,-52,-55,-1,68,-39,-131,-6,-44,-20,-53,-39,-77,-19,139,-12,72,1,71,-43,-6,-9,102,172,-171,-119
1772819485.1677258,96,-18,25,110,-104,11,154,-46,-52,3,71,-39,-130,-8,-49,-27,-59,-39,-77,-23,137,-12,72,-5,68,-45,-10,-6,103,186,-170,-118
1772819485.169679,88,-13,26,115,-106,12,163,-42,-51,6,75,-38,-131,-6,-52,-32,-64,-39,-77,-26,135,-12,71,-15,65,-47,-8,-6,100,197,-170,-119
1772819485.171632,94,-14,26,113,-110,10,164,-42,-50,7,78,-36,-131,-6,-49,-28,-59,-34,-75,-22,136,-12,69,-9,62,-51,-11,-13,94,195,-175,-121
1772819485.1735852,102,-21,26,117,-111,10,155,-43,-49,7,77,-35,-130,-7,-46,-23,-52,-30,-71,-14,138,-10,69,-2,61,-54,-17,-19,88,186,-179,-122
1772819485.1755383,106,-23,22,118,-111,8,150,-43,-49,6,75,-36,-129,-9,-48,-23,-47,-26,-66,-9,141,-7,73,1,60,-53,-21,-21,84,181,-183,-122
1772819485.1774914,102,-39,14,117,-112,5,149,-45,-50,4,76,-37,-127,-11,-46,-18,-42,-22,-61,-4,145,-5,76,5,57,-51,-23,-17,84,180,-185,-120
1772819485.1794446,92,-40,12,111,-111,5,149,-45,-50,3,76,-39,-126,-15,-50,-23,-48,-23,-59,-3,148,-2,82,11,62,-47,-22,-12,85,180,-183,-117
1772819485.1813977,81,-26,18,109,-109,7,151,-44,-51,3,73,-42,-127,-19,-55,-27,-53,-25,-59,-4,150,-1,86,12,67,-44,-19,-16,83,177,-181,-116
1772819485.1833508,73,-15,17,111,-109,8,153,-45,-53,2,68,-44,-129,-23,-55,-26,-51,-25,-59,-5,150,-3,87,10,73,-45,-14,-11,82,174,-180,-116
1772819485.185304,73,-7,16,112,-110,6,152,-47,-54,-3,66,-47,-133,-27,-58,-27,-51,-29,-61,-7,150,-5,87,12,80,-44,-9,-2,89,173,-179,-117
1772819485.187257,89,-7,18,116,-109,6,149,-45,-55,-4,66,-49,-135,-29,-60,-29,-53,-33,-65,-8,148,-7,86,9,78,-42,-4,-3,93,171,-176,-118
1772819485.1892102,98,-16,18,120,-107,5,153,-43,-55,-1,67,-48,-135,-26,-57,-27,-51,-32,-67,-10,147,-8,86,0,73,-39,-4,-17,93,170,-172,-117
1772819485.1911633,95,-20,25,122,-105,3,154,-43,-55,-1,67,-47,-135,-24,-57,-28,-53,-32,-69,-12,146,-10,85,2,74,-37,-3,-22,93,172,-169,-117
1772819485.1931164,90,-12,28,120,-105,10,150,-44,-56,-1,69,-46,-135,-24,-59,-29,-54,-35,-70,-14,143,-11,82,3,75,-37,-4,-16,92,173,-169,-118
1772819485.1950696,88,-5,27,120,-105,0,144,-45,-56,0,73,-43,-133,-21,-53,-22,-47,-32,-70,-13,138,-12,79,0,68,-40,-10,-16,97,176,-172,-119
1772819485.1970227,90,2,27,124,-103,-17,143,-42,-53,1,74,-40,-131,-17,-48,-20,-46,-31,-71,-12,137,-11,75,-3,60,-44,-16,-19,104,179,-173,-120
1772819485.1989758,87,3,22,127,-102,-13,145,-38,-51,5,74,-37,-130,-11,-46,-22,-48,-31,-70,-11,138,-11,73,-6,58,-48,-17,-19,99,176,-175,-119
1772819485.200929,83,1,27,128,-106,0,144,-39,-51,5,75,-37,-131,-6,-41,-17,-43,-29,-70,-9,138,-13,72,-5,65,-52,-19,-19,83,169,-178,-122
1772819485.202882,86,-1,42,133,-110,25,150,-44,-52,7,75,-36,-132,-6,-42,-17,-42,-28,-72,-12,137,-15,70,0,66,-56,-15,-19,56,160,-181,-126
1772819485.2048352,90,-5,47,140,-111,31,154,-43,-52,8,81,-34,-133,-5,-43,-20,-47,-29,-73,-17,135,-15,68,4,62,-57,-15,-21,55,154,-183,-127
1772819485.2067883,93,-4,40,145,-111,26,153,-41,-51,8,81,-33,-132,-4,-39,-17,-42,-27,-71,-15,134,-15,66,5,59,-58,-21,-25,61,146,-184,-127
1772819485.2087414,88,-4,32,143,-110,21,160,-43,-50,9,79,-33,-131,-5,-40,-17,-39,-26,-69,-12,135,-13,69,4,61,-57,-24,-28,66,145,-183,-126
1772819485.2106946,76,-9,29,138,-111,15,167,-47,-49,9,82,-35,-129,-7,-40,-17,-40,-26,-68,-11,138,-10,72,6,67,-54,-22,-28,66,148,-184,-124
1772819485.2126477,66,-20,33,132,-112,9,171,-49,-49,12,87,-35,-128,-7,-38,-18,-43,-26,-67,-12,140,-9,75,8,73,-52,-19,-25,66,147,-185,-122
1772819485.2146008,63,-34,29,123,-113,-2,170,-50,-49,14,89,-34,-127,-4,-35,-15,-44,-25,-64,-10,142,-7,78,12,76,-49,-11,-24,60,148,-186,-119
1772819485.216554,67,-34,26,120,-113,2,166,-48,-48,13,85,-35,-128,-5,-36,-16,-44,-27,-63,-9,142,-5,79,9,74,-47,-8,-24,58,149,-183,-118
1772819485.218507,72,-28,31,119,-110,10,164,-42,-46,12,83,-35,-128,-7,-41,-19,-46,-30,-65,-8,141,-6,79,2,66,-47,-12,-23,58,153,-180,-118
1772819485.2204602,63,-25,35,120,-109,10,160,-41,-45,13,81,-34,-125,-7,-44,-18,-46,-29,-65,-8,144,-5,79,6,61,-46,-12,-23,50,155,-178,-117
1772819485.2224133,51,-27,29,121,-110,9,159,-41,-43,14,85,-33,-124,-6,-42,-15,-45,-28,-64,-10,145,-4,79,10,62,-48,-17,-25,62,152,-180,-116
1772819485.2243664,48,-26,26,120,-110,10,161,-41,-42,15,92,-31,-123,-4,-40,-12,-45,-27,-63,-11,143,-4,78,6,61,-50,-25,-30,75,145,-182,-115
1772819485.2263196,54,-25,30,118,-107,12,161,-41,-42,14,88,-32,-122,-4,-40,-12,-44,-25,-62,-10,143,-3,80,-5,62,-49,-28,-34,78,141,-181,-113
1772819485.2282727,57,-27,31,117,-107,12,164,-40,-40,14,82,-32,-120,-3,-36,-10,-41,-23,-60,-11,145,-1,81,-7,60,-49,-32,-38,72,137,-183,-112
1772819485.2302258,57,-33,29,114,-104,11,167,-37,-39,18,84,-29,-117,0,-33,-12,-49,-25,-60,-18,145,1,82,-2,59,-48,-33,-37,68,135,-183,-109
1772819485.232179,65,-39,30,113,-101,12,169,-36,-38,16,85,-28,-116,0,-34,-15,-53,-26,-60,-17,143,1,81,-3,59,-47,-31,-39,65,135,-181,-108
1772819485.234132,69,-44,34,119,-100,13,164,-36,-39,12,82,-30,-115,-3,-38,-15,-50,-24,-58,-12,142,2,79,0,58,-45,-25,-43,61,130,-180,-108
1772819485.2360852,64,-42,34,126,-98,14,155,-33,-39,11,81,-29,-115,-2,-37,-11,-42,-21,-57,-10,141,2,78,-2,53,-46,-24,-43,62,116,-179,-108
1772819485.2380383,57,-29,31,130,-99,13,155,-34,-40,9,77,-32,-115,-3,-36,-8,-39,-19,-56,-10,142,2,79,0,54,-48,-28,-38,69,105,-179,-109
1772819485.2399914,53,-25,33,131,-99,13,159,-35,-40,11,76,-32,-114,-3,-38,-11,-43,-18,-57,-14,143,2,81,-4,59,-48,-31,-40,65,112,-178,-109
1772819485.2419446,54,-33,32,130,-98,11,157,-36,-40,10,75,-32,-113,-4,-40,-14,-47,-18,-57,-14,145,4,84,-3,62,-46,-33,-43,62,131,-178,-108
1772819485.2438977,54,-38,30,133,-98,8,155,-38,-40,10,75,-32,-112,-4,-40,-16,-47,-18,-58,-15,144,5,83,0,61,-45,-35,-42,61,145,-179,-108
1772819485.2458508,48,-41,29,133,-100,9,157,-37,-38,9,78,-30,-111,-2,-36,-13,-43,-17,-57,-13,143,6,82,0,56,-46,-38,-44,62,143,-180,-108
1772819485.247804,46,-53,22,128,-103,7,160,-37,-37,7,82,-27,-109,1,-31,-5,-34,-13,-54,-6,144,6,81,1,53,-48,-39,-48,60,137,-182,-109
1772819485.249757,51,-54,18,122,-106,3,161,-37,-37,8,84,-25,-109,4,-28,-1,-32,-12,-53,-5,144,7,81,2,54,-48,-40,-47,57,132,-185,-110
1772819485.2517102,62,-38,27,119,-107,7,158,-33,-37,13,83,-24,-109,5,-29,-5,-39,-15,-57,-10,141,6,79,2,50,-50,-42,-44,56,129,-188,-111
1772819485.2536633,69,-29,30,120,-109,11,155,-31,-37,14,85,-24,-110,5,-32,-9,-41,-17,-58,-11,140,4,76,1,51,-52,-44,-49,62,129,-189,-112
1772819485.2556164,69,-39,22,116,-113,6,155,-34,-39,11,84,-25,-111,6,-30,-4,-33,-16,-57,-6,142,2,76,5,55,-54,-46,-52,83,133,-193,-115
1772819485.2575696,69,-46,21,115,-114,6,156,-39,-40,12,84,-26,-112,6,-28,-3,-32,-15,-58,-6,141,2,77,8,56,-56,-50,-44,86,139,-194,-116
1772819485.2595227,63,-46,27,117,-110,11,156,-39,-40,15,88,-24,-111,7,-28,-5,-36,-15,-57,-9,142,3,81,7,63,-53,-44,-34,48,130,-191,-112
1772819485.2614758,53,-39,26,114,-109,10,156,-40,-41,14,89,-25,-112,7,-26,-4,-35,-16,-57,-8,143,4,82,8,67,-50,-35,-29,34,120,-188,-110
1772819485.263429,47,-34,25,116,-108,7,154,-43,-42,13,88,-27,-113,6,-27,-5,-32,-17,-58,-6,144,4,83,7,67,-50,-35,-26,43,118,-188,-111
1772819485.265382,35,-41,24,116,-108,8,152,-44,-42,11,88,-27,-114,7,-27,0,-26,-14,-58,-4,146,2,84,5,69,-48,-36,-27,48,117,-187,-111
1772819485.2673352,24,-48,21,115,-106,5,153,-40,-42,12,91,-27,-115,7,-25,3,-23,-13,-59,-5,144,1,83,7,70,-46,-33,-29,51,120,-184,-112
1772819485.2692883,34,-48,16,115,-106,0,158,-38,-41,13,94,-25,-116,6,-25,1,-26,-16,-61,-9,139,-1,81,8,68,-46,-30,-26,55,122,-182,-114
1772819485.2712414,47,-42,13,113,-109,-2,163,-39,-42,13,98,-26,-118,8,-22,2,-28,-15,-63,-9,137,-3,78,5,66,-49,-30,-24,56,123,-184,-117
1772819485.2731946,53,-37,17,115,-107,2,170,-40,-43,14,98,-26,-120,7,-27,-7,-37,-17,-63,-10,136,-4,78,2,65,-47,-29,-25,58,125,-183,-117
1772819485.2751477,52,-38,17,117,-107,4,169,-40,-42,17,100,-24,-119,10,-22,-3,-34,-16,-60,-7,136,-3,76,3,59,-50,-34,-37,56,122,-182,-117
1772819485.2771008,47,-42,18,115,-108,1,161,-39,-42,17,99,-21,-117,13,-13,6,-24,-12,-58,-4,140,-2,78,-2,61,-53,-34,-47,47,117,-184,-118
1772819485.279054,48,-50,22,117,-108,6,162,-38,-39,15,93,-22,-116,12,-17,3,-25,-13,-58,-5,143,1,82,-9,69,-52,-29,-46,39,116,-184,-116
1772819485.281007,48,-59,25,116,-109,8,167,-37,-39,14,91,-23,-116,13,-18,3,-26,-11,-56,-2,147,1,81,5,65,-55,-41,-47,44,117,-187,-118
1772819485.2829602,40,-60,23,113,-109,10,167,-34,-39,18,100,-20,-116,16,-15,4,-22,-7,-53,5,148,1,78,17,56,-60,-48,-52,37,114,-190,-120
1772819485.2849133,34,-56,21,112,-110,7,165,-32,-38,22,111,-16,-115,20,-8,8,-18,-6,-51,8,145,-1,76,12,50,-63,-45,-54,19,112,-191,-121
1772819485.2868664,39,-46,22,110,-112,7,166,-31,-38,23,111,-16,-115,18,-12,6,-20,-5,-52,8,143,-3,75,12,49,-64,-47,-51,26,113,-193,-122
1772819485.2888196,45,-38,19,103,-114,6,165,-33,-40,21,103,-19,-116,15,-16,4,-19,-5,-52,8,142,-4,75,13,52,-62,-50,-48,46,114,-194,-122
1772819485.2907727,40,-37,17,95,-114,-1,160,-37,-42,16,96,-21,-117,15,-14,9,-14,-6,-52,8,143,-3,76,13,56,-58,-48,-41,59,114,-194,-119
1772819485.2927258,35,-38,24,91,-112,-6,156,-40,-44,14,94,-22,-117,16,-14,6,-20,-9,-54,4,143,-3,78,14,60,-53,-41,-35,63,115,-190,-117
1772819485.294679,34,-38,27,88,-111,-5,154,-43,-45,11,92,-23,-119,14,-17,2,-26,-12,-56,2,144,-2,80,16,66,-49,-35,-29,64,118,-186,-115
1772819485.296632,23,-36,24,87,-110,3,152,-47,-47,10,92,-24,-119,14,-19,1,-24,-12,-55,3,144,-2,81,17,68,-47,-31,-29,64,116,-185,-114
1772819485.2985852,15,-43,21,92,-108,-4,154,-45,-45,10,92,-23,-118,14,-17,4,-22,-11,-54,4,143,-1,81,17,70,-46,-29,-30,63,115,-185,-115
1772819485.3005383,21,-60,16,90,-107,-17,156,-39,-43,12,93,-21,-118,15,-12,7,-17,-8,-52,6,144,0,81,17,70,-47,-31,-32,61,114,-185,-116
1772819485.3024914,26,-62,12,92,-108,-11,158,-34,-42,13,93,-21,-116,15,-10,10,-12,-5,-52,7,145,0,78,17,63,-51,-36,-36,58,112,-187,-117
1772819485.3044446,31,-56,17,94,-111,3,159,-36,-43,12,94,-21,-117,16,-11,10,-12,-6,-52,8,145,-1,78,17,57,-54,-41,-39,55,111,-189,-118
1772819485.3063977,39,-50,28,94,-115,19,160,-41,-43,13,96,-21,-118,16,-13,9,-17,-8,-53,5,145,-1,78,16,53,-57,-41,-43,50,112,-192,-119
1772819485.3083508,42,-43,32,95,-113,20,161,-40,-43,15,98,-22,-117,13,-19,4,-24,-11,-54,3,145,0,79,14,53,-56,-42,-45,49,113,-191,-116
1772819485.310304,44,-48,28,97,-111,14,161,-38,-41,17,102,-20,-115,14,-17,4,-26,-11,-54,1,144,1,78,12,53,-56,-46,-42,54,108,-191,-115
1772819485.312257,49,-60,22,101,-108,12,162,-37,-42,16,103,-20,-115,13,-15,4,-26,-11,-55,0,144,2,80,11,60,-55,-45,-43,70,92,-192,-115
1772819485.3142102,47,-78,21,108,-106,13,163,-38,-43,14,100,-23,-116,9,-16,4,-25,-10,-55,2,146,2,81,16,67,-53,-47,-46,76,92,-191,-114
1772819485.3161633,39,-78,24,108,-105,15,162,-37,-42,14,97,-23,-116,8,-19,5,-25,-11,-56,4,148,4,83,21,75,-50,-44,-52,52,104,-188,-113
1772819485.3181164,36,-62,32,108,-104,19,166,-34,-40,15,96,-26,-117,4,-28,-3,-35,-17,-59,-3,145,3,83,15,74,-48,-38,-56,48,120,-184,-111
1772819485.3200696,40,-49,34,105,-104,18,170,-32,-39,16,94,-27,-117,1,-31,-6,-38,-18,-59,-6,145,2,83,7,69,-46,-36,-44,36,123,-182,-111
1772819485.3220227,43,-42,25,107,-105,14,170,-34,-40,14,94,-29,-116,0,-29,-4,-32,-16,-59,-2,145,2,82,11,65,-46,-32,-34,29,112,-181,-112
1772819485.3239758,43,-47,23,114,-104,11,163,-36,-40,13,93,-29,-117,-1,-30,-6,-31,-16,-60,1,143,1,80,13,67,-46,-31,-27,38,110,-179,-113
1772819485.325929,37,-52,25,116,-103,14,155,-37,-40,15,92,-29,-117,-1,-31,-8,-33,-18,-59,0,143,1,80,11,69,-45,-31,-26,50,112,-176,-112
1772819485.327882,32,-50,26,111,-104,15,154,-39,-40,15,95,-29,-117,1,-28,-5,-30,-16,-58,1,143,3,80,3,69,-45,-33,-29,53,113,-178,-111
1772819485.3298352,33,-42,27,104,-105,13,161,-39,-40,14,94,-29,-115,-2,-32,-8,-27,-14,-57,0,142,4,80,4,70,-45,-31,-33,46,116,-180,-111
1772819485.3317883,33,-36,29,97,-106,10,170,-38,-39,15,89,-29,-114,-3,-32,-10,-26,-13,-56,-2,141,4,80,8,69,-46,-30,-34,39,118,-182,-111
1772819485.3337414,30,-34,33,93,-105,13,171,-30,-36,20,91,-26,-113,1,-30,-8,-32,-14,-58,-7,139,3,78,8,68,-49,-40,-38,47,118,-182,-110
1772819485.3356946,30,-39,34,93,-105,20,168,-20,-34,27,98,-22,-112,4,-31,-12,-40,-16,-60,-11,138,3,76,5,68,-50,-45,-44,52,116,-184,-109
1772819485.3376477,30,-49,33,92,-104,18,170,-16,-31,33,109,-18,-111,8,-28,-10,-38,-15,-59,-9,139,4,76,-2,59,-52,-46,-47,49,110,-186,-108
1772819485.3396008,32,-52,32,92,-104,15,173,-16,-29,36,118,-14,-110,9,-25,-6,-36,-14,-58,-7,140,5,77,-16,53,-53,-47,-47,45,105,-188,-108
1772819485.341554,34,-51,31,93,-104,13,173,-18,-29,34,111,-13,-109,7,-26,-7,-34,-12,-57,-4,141,7,79,-10,55,-51,-44,-49,34,103,-189,-108
1772819485.343507,32,-50,27,91,-104,10,168,-24,-31,29,96,-15,-107,7,-22,-5,-28,-8,-54,2,145,10,81,6,59,-49,-38,-50,17,102,-189,-107
1772819485.3454602,28,-52,24,90,-103,7,163,-30,-33,23,88,-16,-107,6,-18,-1,-22,-7,-52,4,147,10,82,10,61,-47,-40,-52,27,104,-188,-105
1772819485.3474133,23,-56,27,92,-102,5,162,-34,-36,19,85,-19,-110,5,-19,1,-22,-9,-53,3,148,10,84,14,62,-46,-44,-49,46,106,-188,-106
1772819485.3493664,24,-61,27,98,-103,4,161,-35,-38,19,90,-20,-112,6,-20,-3,-27,-13,-54,0,146,7,84,17,67,-45,-42,-45,56,106,-186,-108
1772819485.3513196,31,-69,25,104,-104,7,157,-32,-39,19,91,-20,-113,5,-21,-2,-27,-13,-55,0,143,5,83,16,70,-45,-37,-42,57,103,-185,-111
1772819485.3532727,36,-65,22,113,-104,14,156,-30,-38,21,92,-20,-113,6,-23,-5,-29,-12,-56,-1,142,3,80,11,65,-47,-34,-41,55,100,-183,-112
1772819485.3552258,32,-50,22,113,-106,13,159,-32,-38,20,93,-20,-113,6,-23,-6,-30,-14,-56,-2,140,2,79,8,66,-48,-32,-38,53,101,-183,-114
1772819485.357179,26,-43,24,107,-109,11,154,-36,-40,17,89,-23,-113,5,-25,-6,-29,-12,-56,-1,144,2,81,11,78,-48,-32,-32,51,102,-183,-115
1772819485.359132,24,-46,21,97,-109,10,150,-38,-40,16,87,-22,-111,7,-21,0,-24,-7,-52,4,146,5,84,14,79,-48,-38,-40,47,103,-186,-114
1772819485.3610852,21,-48,19,89,-110,6,154,-39,-38,19,91,-19,-108,11,-15,7,-21,-3,-49,7,148,9,85,13,72,-50,-43,-57,45,105,-187,-112
1772819485.3630383,18,-51,19,85,-112,1,157,-40,-37,20,95,-17,-107,13,-10,10,-18,0,-48,8,148,10,85,10,68,-52,-45,-57,44,104,-190,-111
1772819485.3649914,21,-53,19,87,-112,1,160,-38,-37,19,96,-17,-106,14,-8,12,-19,1,-50,5,147,9,85,9,62,-54,-44,-52,43,103,-191,-111
1772819485.3669446,30,-58,19,95,-111,1,162,-36,-36,16,95,-19,-107,12,-13,9,-21,-2,-51,4,147,8,84,11,62,-54,-43,-46,45,101,-191,-110
1772819485.3688977,27,-61,18,100,-111,-1,160,-35,-37,14,91,-19,-107,12,-14,9,-20,-3,-51,5,147,8,83,11,64,-52,-41,-45,47,99,-190,-109
1772819485.3708508,16,-58,22,103,-109,2,161,-37,-36,14,87,-20,-107,12,-18,7,-21,-4,-51,4,145,7,84,8,64,-49,-39,-44,51,99,-187,-109
1772819485.372804,15,-49,20,103,-107,5,163,-37,-35,13,82,-20,-108,8,-24,3,-25,-6,-53,-1,144,6,83,7,65,-48,-40,-44,69,106,-185,-109
1772819485.374757,16,-45,14,102,-106,2,160,-36,-34,14,86,-18,-108,9,-23,1,-27,-7,-54,-5,143,6,81,5,68,-46,-43,-45,72,110,-184,-109
1772819485.3767102,21,-54,16,104,-105,1,157,-36,-34,15,90,-16,-106,10,-22,0,-26,-7,-55,-5,142,6,82,2,73,-43,-36,-49,58,104,-182,-107
1772819485.3786633,32,-73,16,111,-102,10,161,-35,-35,14,88,-18,-106,8,-23,-1,-27,-7,-56,-4,143,6,83,0,72,-40,-28,-53,57,94,-180,-106
1772819485.3806164,42,-75,13,107,-101,1,157,-36,-35,12,85,-19,-105,8,-20,6,-20,-4,-53,0,146,7,84,6,70,-41,-24,-47,44,81,-181,-107
1772819485.3825696,46,-80,13,106,-101,-19,152,-32,-34,15,89,-17,-103,12,-16,10,-15,-1,-52,3,148,8,82,9,66,-44,-31,-45,35,88,-182,-108
1772819485.3845227,34,-88,14,109,-102,-21,159,-28,-32,20,96,-14,-102,16,-12,11,-20,-1,-53,-2,146,7,78,8,60,-48,-39,-48,37,105,-181,-109
1772819485.3864758,16,-76,21,105,-106,-9,169,-29,-33,21,102,-13,-104,17,-13,7,-25,-3,-56,-6,146,6,77,9,55,-50,-40,-47,40,111,-183,-109
1772819485.388429,11,-54,32,103,-110,11,178,-33,-35,22,103,-15,-106,13,-24,-6,-33,-7,-57,-8,144,5,77,8,55,-52,-38,-42,43,109,-185,-109
1772819485.390382,17,-40,36,96,-111,17,175,-36,-36,21,101,-17,-106,12,-25,-5,-29,-6,-56,-7,143,5,78,8,56,-52,-37,-41,35,104,-188,-110
1772819485.3923352,21,-39,36,90,-109,13,167,-35,-35,21,100,-17,-104,12,-25,-4,-26,-4,-54,-2,146,6,81,10,54,-51,-37,-44,23,103,-190,-107
1772819485.3942883,28,-40,36,85,-110,7,166,-34,-35,20,97,-17,-104,11,-24,-2,-23,-3,-53,-1,149,8,83,5,52,-50,-46,-46,30,106,-191,-106
1772819485.3962414,31,-42,36,82,-110,4,169,-36,-35,16,96,-19,-105,12,-23,-1,-24,-5,-52,-2,151,9,86,3,54,-48,-50,-45,39,105,-192,-106
1772819485.3981946,30,-45,33,84,-111,3,167,-37,-36,13,93,-22,-107,9,-25,0,-23,-5,-51,1,152,9,88,8,61,-47,-48,-44,43,102,-191,-106
1772819485.4001477,28,-44,30,85,-112,2,165,-36,-37,12,93,-23,-108,7,-23,2,-17,-3,-50,6,153,9,89,2,65,-48,-47,-47,45,100,-191,-107
1772819485.4021008,23,-49,27,89,-112,1,163,-35,-38,13,95,-24,-107,6,-23,2,-16,-2,-50,7,154,8,88,0,66,-47,-42,-46,49,100,-190,-108
1772819485.404054,20,-57,23,95,-112,1,161,-33,-37,15,97,-23,-106,7,-23,1,-19,-2,-51,5,153,6,86,3,65,-46,-39,-45,52,102,-189,-108
1772819485.406007,25,-61,22,96,-111,3,163,-32,-36,16,100,-23,-106,8,-20,3,-17,-2,-52,6,149,6,83,7,59,-48,-42,-48,50,100,-189,-110
1772819485.4079602,31,-67,22,96,-110,4,165,-32,-36,16,102,-22,-106,9,-18,4,-17,-3,-53,3,146,5,83,12,59,-49,-44,-44,50,98,-191,-110
1772819485.4099133,26,-64,17,98,-109,2,165,-33,-36,16,104,-21,-107,10,-16,5,-18,-2,-54,2,145,4,83,15,63,-50,-45,-40,45,96,-192,-110
1772819485.4118664,18,-54,18,96,-108,2,166,-32,-34,16,102,-19,-107,11,-17,4,-16,0,-51,6,148,6,82,19,60,-52,-44,-43,26,97,-191,-110
1772819485.4138196,8,-50,25,90,-108,6,167,-31,-33,17,103,-19,-104,13,-15,8,-11,3,-49,9,149,7,82,18,57,-54,-42,-51,12,95,-191,-110
1772819485.4157727,8,-48,26,86,-109,6,168,-29,-33,19,103,-18,-103,14,-12,11,-10,2,-48,8,148,7,79,11,57,-56,-45,-56,24,94,-192,-111
1772819485.4177258,22,-56,22,81,-111,5,167,-27,-33,22,105,-16,-102,14,-12,10,-10,4,-48,10,149,6,78,9,56,-59,-50,-57,38,93,-195,-113
1772819485.419679,27,-61,26,83,-112,10,170,-25,-33,23,105,-16,-103,15,-15,5,-14,2,-51,9,150,5,77,12,56,-59,-53,-57,43,93,-196,-114
1772819485.421632,23,-59,27,85,-112,11,170,-24,-33,24,108,-15,-104,16,-17,2,-19,-1,-53,5,148,4,77,14,56,-58,-53,-52,42,95,-194,-114
1772819485.4235852,22,-64,21,84,-113,6,169,-27,-33,25,110,-14,-104,15,-15,5,-18,0,-52,5,150,5,80,16,57,-57,-51,-48,40,94,-194,-114
1772819485.4255383,21,-74,20,84,-114,4,173,-29,-33,26,108,-14,-105,15,-12,9,-16,-2,-52,5,151,5,82,19,57,-56,-51,-48,41,92,-195,-113
1772819485.4274914,10,-74,20,87,-112,5,174,-32,-33,25,101,-14,-105,16,-10,8,-17,-5,-53,6,150,5,82,16,54,-54,-50,-50,59,96,-194,-111
1772819485.4294446,8,-80,18,91,-110,4,172,-33,-32,21,91,-17,-104,13,-15,4,-19,-5,-52,7,150,8,84,14,54,-52,-50,-48,72,104,-191,-107
1772819485.4313977,17,-86,16,92,-110,4,170,-33,-31,20,91,-17,-102,12,-18,2,-18,-3,-49,9,153,11,88,10,59,-48,-43,-47,45,100,-189,-105
1772819485.4333508,23,-80,18,92,-112,5,167,-32,-33,20,94,-17,-102,13,-18,2,-15,0,-49,11,153,10,88,5,61,-46,-36,-50,30,93,-188,-107
1772819485.435304,29,-76,21,99,-113,5,172,-30,-34,18,94,-18,-104,14,-20,-1,-19,-3,-51,7,150,7,84,8,60,-50,-37,-50,41,96,-188,-110
1772819485.437257,36,-69,23,108,-113,-1,175,-29,-36,19,93,-17,-106,16,-20,-4,-26,-8,-56,-1,146,4,82,8,62,-52,-40,-48,58,100,-189,-113
1772819485.4392102,33,-66,23,106,-113,0,168,-27,-35,22,92,-15,-105,19,-18,-1,-24,-5,-55,1,146,5,82,11,66,-52,-39,-56,44,96,-190,-113
1772819485.4411633,28,-70,18,101,-114,4,168,-30,-33,24,93,-13,-103,23,-11,8,-15,0,-52,6,149,7,83,11,68,-52,-36,-64,21,88,-193,-112
1772819485.4431164,22,-72,22,100,-113,6,172,-32,-32,25,93,-13,-102,23,-10,9,-12,1,-52,7,149,8,83,7,64,-53,-39,-62,18,87,-193,-111
1772819485.4450696,23,-65,32,100,-109,11,179,-31,-32,25,91,-15,-104,20,-16,1,-21,-4,-54,3,147,8,84,0,60,-50,-36,-54,16,91,-190,-108
1772819485.4470227,29,-61,33,101,-106,13,191,-32,-32,23,89,-17,-106,16,-21,-2,-27,-9,-56,-1,144,8,85,-10,57,-49,-39,-47,23,98,-188,-106
1772819485.4489758,31,-65,32,105,-104,7,186,-32,-33,21,88,-17,-107,12,-24,-4,-26,-7,-56,2,146,7,84,-6,58,-50,-45,-42,37,97,-187,-106
1772819485.450929,28,-68,35,115,-103,13,171,-28,-34,20,86,-18,-107,10,-25,-6,-26,-8,-57,3,148,6,83,1,57,-50,-47,-43,45,92,-186,-107
1772819485.452882,25,-59,39,119,-103,19,167,-26,-34,22,93,-18,-108,12,-24,-5,-30,-10,-60,-3,146,3,81,6,52,-51,-47,-52,50,87,-185,-109
1772819485.4548352,24,-44,42,116,-103,21,172,-27,-34,22,93,-19,-110,9,-29,-10,-38,-13,-63,-9,144,3,82,8,54,-49,-39,-52,61,78,-183,-109
1772819485.4567883,25,-47,43,114,-103,21,178,-29,-34,20,89,-20,-110,7,-32,-12,-37,-13,-63,-8,144,3,82,6,58,-47,-35,-48,61,77,-182,-109
1772819485.4587414,28,-61,43,112,-105,18,178,-32,-35,21,99,-19,-110,10,-25,-6,-32,-10,-63,-5,142,2,80,4,55,-50,-39,-48,51,92,-184,-111
1772819485.4606946,30,-66,40,112,-107,19,176,-35,-36,20,97,-19,-110,11,-26,-2,-27,-9,-61,-1,142,1,79,2,56,-52,-44,-45,45,109,-185,-113
1772819485.4626477,26,-65,31,110,-108,18,171,-39,-35,16,87,-19,-109,10,-24,0,-26,-6,-60,6,145,2,81,3,63,-50,-43,-44,45,113,-185,-113
1772819485.4646008,20,-61,21,104,-109,-3,169,-39,-35,15,86,-17,-107,12,-18,6,-21,-1,-57,12,149,3,81,11,65,-50,-44,-46,45,109,-185,-114
1772819485.466554,15,-61,19,100,-109,-15,170,-34,-35,19,92,-15,-108,13,-14,10,-16,2,-56,13,150,3,80,15,63,-51,-46,-51,43,104,-186,-113
1772819485.468507,13,-60,25,98,-109,-8,169,-32,-35,20,98,-15,-108,14,-11,12,-14,3,-54,10,147,2,78,13,60,-52,-48,-53,40,98,-187,-114
1772819485.4704602,15,-58,32,98,-114,8,168,-38,-37,19,99,-16,-108,15,-9,18,-9,6,-53,6,145,1,75,10,60,-56,-48,-51,37,92,-190,-117
1772819485.4724133,19,-56,30,103,-117,24,170,-42,-39,19,97,-18,-108,12,-17,13,-13,5,-52,7,146,1,77,11,63,-55,-46,-55,36,90,-190,-116
1772819485.4743664,22,-50,21,107,-113,19,169,-42,-37,19,96,-19,-109,10,-22,7,-18,4,-51,8,148,4,80,15,63,-52,-48,-57,36,91,-188,-114
1772819485.4763196,18,-39,28,112,-108,13,167,-42,-35,19,96,-20,-108,8,-25,0,-27,1,-52,3,146,5,81,16,58,-49,-48,-52,39,94,-185,-110
1772819485.4782727,19,-49,34,110,-106,11,168,-41,-33,19,97,-19,-107,8,-25,-3,-29,1,-51,3,145,7,84,8,53,-47,-47,-48,33,96,-183,-106
1772819485.4802258,19,-69,30,110,-105,8,169,-40,-34,18,95,-19,-106,7,-23,-1,-27,1,-49,5,148,9,88,4,58,-44,-40,-46,20,99,-182,-104
1772819485.482179,16,-83,29,113,-105,9,172,-38,-36,17,94,-20,-108,6,-25,-5,-31,-2,-50,1,149,8,89,11,66,-42,-38,-44,31,100,-181,-105
1772819485.484132,12,-91,30,112,-107,10,175,-38,-36,18,93,-21,-110,5,-25,-7,-32,-4,-53,0,149,6,89,17,72,-43,-41,-46,56,97,-183,-107
1772819485.4860852,13,-93,33,109,-109,11,174,-38,-37,19,96,-19,-110,7,-24,-5,-31,-4,-55,0,148,3,85,18,70,-46,-47,-52,80,101,-186,-110
1772819485.4880383,17,-82,35,103,-110,14,169,-34,-37,22,101,-16,-109,11,-19,0,-28,-2,-55,1,147,1,82,12,65,-48,-49,-60,69,101,-187,-112
1772819485.4899914,22,-69,33,93,-111,14,167,-33,-37,24,102,-14,-107,15,-14,7,-22,0,-54,4,148,1,81,9,57,-49,-47,-66,53,95,-187,-113
1772819485.4919446,27,-60,34,89,-110,16,167,-35,-36,24,101,-14,-106,18,-15,5,-22,0,-53,6,147,3,82,11,52,-49,-46,-63,36,88,-187,-112
1772819485.4938977,30,-53,34,84,-110,14,169,-39,-36,20,95,-15,-106,17,-18,3,-21,1,-52,8,148,4,84,15,56,-47,-40,-53,22,83,-187,-110
1772819485.4958508,32,-50,35,79,-109,15,176,-39,-36,18,90,-16,-105,17,-17,5,-22,1,-53,7,148,5,83,14,59,-47,-36,-54,14,83,-187,-110
1772819485.497804,29,-49,37,80,-108,16,178,-38,-34,21,92,-13,-103,20,-14,7,-23,2,-55,5,146,4,81,13,54,-50,-41,-61,13,85,-187,-110
1772819485.499757,22,-50,37,87,-108,16,174,-37,-31,24,97,-10,-102,24,-11,8,-26,2,-55,3,146,5,78,13,47,-54,-51,-60,26,87,-189,-110
1772819485.5017102,18,-52,37,95,-110,17,170,-34,-31,28,100,-7,-102,26,-7,9,-25,2,-56,2,146,4,75,10,42,-58,-57,-59,34,86,-192,-111
1772819485.5036633,21,-53,34,99,-113,17,167,-32,-32,27,100,-5,-101,27,-3,12,-18,5,-54,4,146,4,74,-4,41,-59,-57,-63,35,83,-192,-110
1772819485.5056164,25,-52,32,100,-112,15,164,-33,-31,25,97,-5,-99,25,-7,11,-18,6,-53,6,148,5,76,-9,45,-58,-53,-62,34,81,-192,-109
1772819485.5075696,22,-53,32,97,-112,13,165,-36,-30,23,96,-7,-99,24,-11,6,-23,3,-54,6,149,6,77,2,49,-56,-50,-57,35,83,-193,-107
1772819485.5095227,18,-61,29,93,-113,12,165,-42,-32,21,94,-8,-100,23,-9,7,-20,3,-54,9,149,7,78,9,52,-55,-46,-53,38,85,-193,-106
1772819485.5114758,21,-72,24,97,-112,11,166,-43,-32,22,94,-8,-101,22,-8,7,-19,3,-54,8,148,7,79,12,54,-52,-43,-55,39,85,-192,-106
1772819485.513429,21,-81,25,97,-111,11,168,-40,-31,25,97,-8,-101,22,-9,7,-20,2,-53,8,148,6,79,10,58,-51,-43,-60,39,83,-191,-107
1772819485.515382,12,-80,26,98,-108,14,168,-37,-31,25,99,-9,-102,21,-11,5,-24,-1,-54,6,149,7,79,7,60,-49,-40,-61,40,83,-188,-106
1772819485.5173352,4,-75,20,101,-105,16,168,-35,-31,25,102,-11,-102,19,-12,3,-26,0,-53,6,150,8,81,2,58,-48,-37,-60,39,84,-186,-105
1772819485.5192883,-2,-78,17,106,-105,17,175,-32,-30,25,102,-11,-102,16,-12,3,-25,2,-53,8,148,8,83,0,56,-48,-36,-60,37,84,-185,-105
1772819485.5212414,-1,-85,21,110,-104,13,185,-30,-30,24,93,-13,-102,9,-17,-1,-27,2,-53,8,148,8,84,10,55,-47,-33,-58,35,86,-185,-105
1772819485.5231946,8,-73,26,99,-104,7,182,-31,-32,23,83,-15,-101,6,-20,-3,-27,3,-51,8,152,10,85,11,56,-46,-34,-54,35,87,-184,-104
1772819485.5251477,12,-57,29,87,-106,9,169,-34,-33,21,80,-18,-101,4,-19,1,-24,6,-49,8,154,12,88,6,62,-45,-39,-56,37,85,-185,-104
1772819485.5271008,18,-53,32,81,-107,10,165,-36,-36,18,78,-20,-103,0,-23,-1,-24,7,-49,10,155,14,92,9,66,-42,-38,-59,45,78,-185,-103
1772819485.529054,24,-58,27,79,-105,9,166,-39,-36,17,77,-22,-103,-4,-28,-7,-25,8,-49,10,157,15,95,14,69,-39,-30,-56,49,69,-183,-102
1772819485.531007,26,-55,21,81,-105,9,166,-41,-35,17,79,-22,-103,-5,-28,-9,-26,8,-48,11,158,14,94,16,69,-40,-30,-58,42,78,-184,-101
1772819485.5329602,20,-57,20,89,-103,10,168,-38,-33,20,85,-19,-102,-2,-26,-7,-26,7,-48,10,157,12,91,11,70,-42,-40,-65,32,93,-186,-102
1772819485.5349133,14,-65,21,97,-102,14,173,-36,-32,24,88,-16,-101,-2,-26,-8,-27,5,-49,6,156,12,90,8,69,-42,-40,-65,19,98,-183,-101
1772819485.5368664,9,-65,27,98,-101,14,175,-34,-32,24,84,-17,-103,-4,-31,-13,-27,3,-50,3,155,11,90,8,63,-43,-37,-56,31,99,-181,-99
1772819485.5388196,7,-57,31,95,-102,12,176,-36,-32,22,84,-18,-105,-5,-34,-13,-27,0,-53,1,154,10,90,11,65,-41,-35,-52,38,94,-180,-99
1772819485.5407727,14,-44,32,97,-99,15,176,-38,-33,22,84,-18,-105,-4,-35,-15,-29,-2,-55,0,151,8,89,12,65,-39,-37,-63,39,89,-178,-99
1772819485.5427258,21,-37,31,94,-98,18,171,-36,-34,22,83,-17,-104,-4,-32,-16,-33,-3,-57,-2,147,9,86,8,62,-40,-40,-68,53,93,-178,-98
1772819485.544679,16,-41,25,84,-98,18,167,-36,-32,25,89,-13,-103,1,-28,-12,-32,-2,-58,-1,148,9,86,2,59,-41,-43,-64,55,94,-179,-96
1772819485.546632,8,-43,26,81,-95,5,169,-35,-29,26,88,-12,-100,3,-33,-10,-31,0,-56,3,152,12,88,6,57,-38,-37,-57,32,89,-177,-93
1772819485.5485852,7,-52,26,83,-92,-5,168,-32,-26,25,84,-11,-98,2,-41,-12,-30,1,-53,3,155,13,91,14,57,-36,-33,-52,27,88,-176,-92
1772819485.5505383,3,-61,26,78,-95,0,165,-30,-27,26,90,-8,-96,8,-34,-6,-24,4,-51,3,155,12,90,14,57,-40,-36,-56,28,84,-180,-95
1772819485.5524914,6,-61,36,75,-101,15,168,-32,-30,27,96,-5,-96,13,-28,-3,-26,4,-51,0,151,10,89,-4,59,-44,-37,-58,26,82,-183,-100
1772819485.5544446,14,-61,41,76,-107,29,175,-37,-32,28,99,-2,-97,17,-27,-2,-30,3,-52,2,149,9,88,-12,62,-47,-33,-65,15,82,-185,-103
1772819485.5563977,19,-56,34,78,-107,25,176,-39,-33,26,95,-3,-99,17,-26,-1,-28,4,-52,6,152,9,88,-2,63,-49,-38,-67,16,85,-187,-104
1772819485.5583508,14,-52,28,77,-108,17,172,-42,-35,23,95,-3,-101,18,-22,2,-24,5,-51,7,153,8,88,6,62,-50,-44,-62,28,85,-189,-106
1772819485.560304,10,-52,30,76,-110,13,169,-44,-36,22,99,-3,-101,19,-18,5,-22,5,-51,6,153,7,89,10,59,-51,-45,-59,34,81,-189,-108
1772819485.562257,10,-54,28,74,-111,13,168,-45,-37,23,107,-4,-100,20,-15,6,-22,5,-52,7,154,7,89,12,61,-51,-47,-58,36,75,-191,-109
1772819485.5642102,8,-56,23,76,-111,12,166,-46,-37,23,109,-4,-101,21,-14,4,-23,4,-53,7,153,6,89,12,64,-51,-44,-53,39,76,-191,-108
1772819485.5661633,5,-65,25,79,-112,9,166,-45,-37,22,108,-2,-102,21,-13,4,-25,3,-55,6,154,5,87,14,68,-50,-40,-48,41,79,-192,-109
1772819485.5681164,4,-70,22,82,-113,5,168,-44,-36,22,103,-2,-102,21,-11,9,-20,6,-54,9,155,4,84,12,65,-50,-38,-52,41,80,-191,-108
1772819485.5700696,7,-67,22,86,-111,7,166,-40,-34,24,98,-4,-100,20,-11,12,-16,9,-53,11,155,3,82,5,60,-50,-40,-64,39,79,-188,-107
1772819485.5720227,9,-59,26,89,-108,10,162,-37,-34,25,97,-5,-101,19,-11,11,-18,9,-54,9,154,2,81,1,62,-50,-42,-67,38,77,-187,-108
1772819485.5739758,12,-57,30,89,-107,10,157,-38,-34,23,92,-6,-101,18,-9,11,-19,9,-54,7,152,3,82,-3,66,-49,-42,-67,38,81,-186,-107
1772819485.575929,16,-54,27,85,-104,10,157,-39,-34,19,86,-8,-101,16,-10,9,-23,7,-54,3,152,5,84,-4,66,-47,-38,-65,43,85,-183,-105
1772819485.577882,18,-57,23,85,-99,13,161,-38,-34,18,85,-11,-101,13,-18,4,-27,5,-55,0,154,6,85,2,64,-45,-36,-64,48,82,-180,-102
1772819485.5798352,16,-62,23,85,-99,12,163,-39,-35,18,87,-12,-102,13,-15,8,-20,8,-54,1,154,6,83,3,61,-46,-38,-69,54,82,-181,-103
1772819485.5817883,14,-61,24,86,-100,13,167,-41,-35,18,89,-12,-102,14,-11,9,-19,7,-55,-1,151,5,81,1,56,-48,-45,-70,64,87,-182,-104
1772819485.5837414,23,-57,27,90,-98,19,174,-35,-33,19,86,-12,-101,13,-13,5,-22,6,-55,-1,151,5,80,0,51,-48,-49,-69,39,87,-179,-103
1772819485.5856946,35,-62,26,98,-96,19,176,-31,-33,17,82,-13,-101,12,-16,2,-23,5,-55,4,154,6,81,1,50,-47,-44,-67,17,84,-177,-102
1772819485.5876477,31,-68,24,102,-97,18,170,-33,-33,15,82,-15,-101,10,-15,4,-23,6,-55,8,155,6,82,3,54,-48,-47,-67,25,88,-178,-102
1772819485.5896008,19,-78,25,103,-97,19,167,-35,-32,15,82,-16,-100,8,-15,7,-21,8,-54,10,155,7,83,4,56,-48,-50,-66,34,90,-178,-101
1772819485.591554,9,-77,30,99,-96,21,167,-33,-30,17,83,-14,-100,7,-18,4,-25,5,-55,4,155,9,85,4,57,-45,-49,-63,38,90,-177,-99
1772819485.593507,-1,-69,32,87,-96,22,166,-33,-29,18,83,-14,-100,6,-18,4,-25,5,-55,0,153,10,87,5,57,-43,-46,-62,39,90,-176,-98
1772819485.5954602,6,-63,31,76,-99,17,166,-36,-30,16,84,-16,-101,3,-19,7,-18,6,-53,3,152,11,88,2,60,-43,-42,-59,39,90,-178,-98
1772819485.5974133,22,-60,34,74,-100,15,170,-37,-30,16,89,-17,-102,1,-21,3,-22,2,-54,2,150,11,89,-2,64,-40,-34,-60,30,81,-178,-97
1772819485.5993664,28,-62,35,77,-100,10,175,-38,-30,19,93,-16,-104,-1,-20,2,-25,0,-55,0,152,10,92,0,71,-37,-26,-70,26,68,-177,-97
1772819485.6013196,20,-52,34,80,-100,10,170,-37,-31,18,88,-19,-105,-6,-25,-1,-27,-1,-55,-1,154,10,94,-6,74,-37,-28,-72,44,79,-177,-97
1772819485.6032727,8,-35,36,85,-99,16,166,-36,-32,17,83,-23,-109,-11,-34,-11,-36,-5,-57,-2,153,8,91,-7,69,-40,-32,-63,68,105,-175,-99
1772819485.6052258,10,-30,40,83,-99,17,169,-36,-33,17,80,-24,-110,-14,-38,-13,-34,-5,-57,2,154,7,88,-2,69,-41,-28,-59,49,112,-175,-100
1772819485.607179,21,-38,41,81,-100,18,170,-38,-34,16,80,-25,-110,-14,-38,-12,-32,-4,-55,2,157,8,91,6,71,-40,-25,-56,26,103,-175,-98
1772819485.609132,31,-40,42,81,-100,16,171,-40,-33,16,80,-24,-110,-14,-39,-13,-33,-5,-54,1,159,10,93,8,66,-40,-30,-58,32,98,-176,-96
1772819485.6110852,30,-37,41,79,-101,14,168,-42,-32,18,81,-22,-108,-12,-38,-13,-31,-6,-55,2,161,12,92,5,62,-39,-32,-59,39,94,-177,-95
1772819485.6130383,21,-36,39,81,-101,12,166,-42,-33,20,84,-19,-107,-8,-34,-9,-29,-6,-55,3,161,11,91,5,61,-40,-34,-61,40,89,-179,-94
1772819485.6149914,15,-35,38,88,-99,13,168,-39,-33,21,82,-18,-106,-4,-34,-7,-29,-5,-54,2,160,11,90,3,60,-41,-35,-66,39,87,-179,-94
1772819485.6169446,12,-39,29,91,-98,12,166,-34,-31,20,81,-15,-106,-2,-35,-10,-33,-6,-54,1,161,10,92,6,64,-40,-32,-68,40,88,-178,-94
1772819485.6188977,10,-46,20,94,-98,10,165,-29,-29,22,85,-12,-107,1,-34,-11,-34,-6,-55,0,162,10,93,10,66,-40,-31,-65,40,87,-178,-96
1772819485.6208508,12,-55,20,100,-99,12,166,-26,-28,25,91,-9,-108,5,-32,-12,-34,-5,-56,-1,162,8,90,9,59,-43,-32,-64,38,83,-180,-98
1772819485.622804,17,-62,25,102,-99,14,168,-27,-28,26,91,-9,-108,7,-29,-9,-31,-2,-55,1,162,7,88,6,52,-44,-33,-62,36,80,-182,-100
1772819485.624757,11,-61,28,100,-99,13,167,-31,-28,25,90,-9,-105,9,-27,-5,-27,-1,-54,4,161,8,88,2,53,-44,-35,-62,33,77,-183,-100
1772819485.6267102,6,-54,29,98,-99,14,170,-34,-27,26,90,-8,-103,10,-29,-8,-33,-3,-54,-1,158,10,88,0,55,-42,-34,-61,36,77,-181,-99
1772819485.6286633,5,-52,26,94,-100,13,173,-36,-27,25,90,-7,-101,13,-27,-9,-37,-4,-54,-7,157,12,89,1,57,-41,-35,-61,40,82,-181,-97
1772819485.6306164,3,-52,25,91,-102,8,169,-42,-29,22,94,-4,-100,19,-18,0,-29,0,-51,-6,156,11,88,1,57,-42,-37,-69,38,81,-182,-99
1772819485.6325696,0,-49,20,93,-102,13,162,-42,-30,21,96,-3,-97,22,-14,5,-23,4,-50,-1,154,10,85,-4,56,-45,-35,-72,33,78,-182,-101
1772819485.6345227,-2,-51,13,94,-105,-3,156,-41,-32,17,91,-4,-96,23,-9,14,-11,11,-48,9,158,10,85,-5,55,-48,-37,-71,33,79,-184,-104
1772819485.6364758,-1,-57,11,96,-107,-16,156,-39,-33,16,90,-4,-96,26,-4,22,-2,16,-46,14,159,9,82,-3,46,-54,-42,-74,48,81,-188,-107
1772819485.638429,6,-58,17,101,-107,-4,154,-37,-32,20,93,-1,-96,26,-8,14,-10,16,-47,11,156,8,79,-3,37,-56,-47,-71,48,84,-189,-107
1772819485.640382,8,-69,21,100,-110,12,153,-44,-33,22,102,3,-95,30,-2,13,-15,14,-48,7,156,9,80,3,44,-56,-40,-66,22,77,-190,-107
1772819485.6423352,1,-86,18,96,-118,20,156,-54,-35,20,103,2,-94,33,1,18,-8,17,-45,10,159,10,81,7,53,-57,-36,-62,16,73,-194,-109
1772819485.6442883,-4,-82,17,94,-117,16,159,-55,-34,17,99,0,-94,30,-4,18,-6,18,-44,10,158,11,82,8,54,-56,-35,-60,22,77,-194,-107
1772819485.6462414,-3,-66,23,84,-115,12,166,-54,-33,16,101,1,-95,31,-3,17,-12,14,-47,5,155,10,83,8,54,-55,-34,-65,23,78,-193,-106
1772819485.6481946,0,-58,26,77,-115,7,173,-52,-32,20,105,2,-96,32,1,18,-16,11,-49,2,153,9,81,8,54,-55,-36,-70,22,77,-193,-106
1772819485.6501477,2,-63,20,83,-113,6,169,-46,-30,22,106,2,-96,31,1,19,-15,10,-50,3,153,8,80,5,55,-54,-38,-70,23,75,-193,-106
1772819485.6521008,3,-72,12,91,-110,10,164,-38,-29,23,103,0,-94,29,1,20,-13,11,-50,3,154,8,80,5,58,-53,-35,-73,15,75,-192,-105
1772819485.654054,1,-69,21,89,-107,14,164,-35,-29,23,100,-3,-94,23,-4,17,-18,10,-51,1,154,9,83,8,62,-49,-30,-79,2,78,-190,-103
1772819485.656007,1,-72,26,89,-104,17,165,-34,-30,22,96,-5,-97,19,-10,12,-20,8,-50,0,154,10,85,5,62,-47,-27,-85,16,85,-188,-101
1772819485.6579602,-5,-72,24,88,-103,15,167,-37,-31,22,96,-5,-98,17,-9,15,-17,10,-49,3,156,11,86,-6,58,-47,-35,-76,24,89,-188,-101
1772819485.6599133,-9,-77,24,80,-106,10,168,-42,-33,21,97,-6,-98,15,-6,20,-9,13,-47,11,158,12,86,-3,56,-49,-43,-60,26,85,-189,-103
1772819485.6618664,-4,-86,27,76,-108,9,170,-47,-35,19,96,-8,-100,12,-6,21,-6,15,-45,14,160,13,87,4,58,-49,-43,-55,31,78,-192,-104
1772819485.6638196,5,-79,26,68,-110,9,169,-51,-35,18,94,-9,-102,10,-11,17,-11,14,-46,12,159,13,90,11,63,-48,-40,-52,37,76,-193,-105
1772819485.6657727,10,-65,24,66,-111,7,166,-49,-36,16,93,-12,-104,9,-12,15,-15,11,-48,13,159,11,90,16,61,-48,-38,-51,39,79,-191,-106
1772819485.6677258,9,-50,26,70,-111,7,169,-45,-37,17,95,-14,-106,6,-12,14,-17,8,-51,11,159,8,88,17,53,-49,-37,-52,39,80,-190,-106
1772819485.669679,9,-35,32,76,-110,12,171,-41,-37,20,99,-16,-109,0,-22,6,-18,5,-54,9,157,5,86,14,51,-49,-35,-54,38,84,-189,-105
1772819485.671632,10,-32,31,78,-109,14,171,-38,-36,24,111,-15,-111,-3,-25,2,-22,2,-57,9,155,4,84,11,51,-49,-33,-57,38,86,-189,-106
1772819485.6735852,10,-37,27,79,-107,12,173,-39,-34,27,116,-15,-111,-6,-28,-3,-31,-2,-60,6,154,6,85,11,55,-47,-30,-53,45,84,-186,-103
1772819485.6755383,8,-41,26,75,-107,6,175,-40,-33,25,99,-16,-109,-8,-30,-5,-31,0,-57,8,156,10,89,11,62,-44,-25,-48,56,70,-182,-99
1772819485.6774914,8,-42,30,76,-104,8,175,-40,-31,18,75,-17,-107,-8,-29,-7,-30,1,-53,9,157,12,91,14,63,-40,-22,-49,54,64,-179,-96
1772819485.6794446,7,-40,37,79,-101,15,171,-39,-30,14,68,-19,-106,-8,-28,-7,-28,0,-52,7,155,13,89,14,62,-39,-23,-54,42,78,-179,-95
1772819485.6813977,9,-41,34,81,-102,14,169,-40,-31,12,74,-20,-105,-9,-27,-3,-26,0,-51,6,154,12,88,10,59,-41,-24,-57,35,96,-180,-96
1772819485.6833508,11,-46,21,83,-103,13,169,-40,-31,12,82,-19,-104,-8,-26,-1,-27,0,-51,5,156,11,85,11,56,-42,-24,-53,36,104,-182,-99
1772819485.685304,11,-47,20,89,-103,14,164,-37,-29,16,90,-17,-103,-6,-25,-2,-28,2,-52,5,156,11,83,12,52,-45,-23,-56,35,98,-183,-101
1772819485.687257,8,-41,27,93,-104,11,166,-36,-30,17,94,-16,-103,-5,-25,0,-23,4,-51,8,156,11,82,5,51,-48,-25,-63,32,90,-183,-101
1772819485.6892102,5,-40,28,94,-104,6,168,-38,-30,15,91,-16,-102,-6,-25,0,-17,7,-49,11,159,12,83,1,50,-47,-25,-67,33,87,-183,-101
1772819485.6911633,5,-45,28,96,-101,9,163,-36,-29,15,90,-16,-102,-6,-27,-6,-26,3,-50,4,158,13,85,9,50,-44,-21,-71,42,92,-182,-99
1772819485.6931164,2,-52,27,94,-100,12,158,-36,-28,15,89,-16,-101,-7,-28,-7,-30,0,-51,2,156,13,87,7,56,-43,-27,-68,57,98,-182,-96
1772819485.6950696,-5,-56,30,96,-97,12,163,-35,-27,17,84,-15,-99,-7,-29,-5,-29,1,-50,6,158,14,89,5,59,-42,-29,-62,35,92,-179,-94
1772819485.6970227,-10,-58,30,95,-94,15,169,-33,-26,18,82,-15,-97,-6,-35,-11,-36,-1,-51,2,160,16,92,10,60,-38,-23,-55,22,87,-176,-91
1772819485.6989758,-11,-62,22,90,-96,13,165,-33,-26,18,85,-13,-96,-3,-32,-9,-33,0,-51,3,161,15,92,14,58,-38,-24,-56,29,84,-175,-91
1772819485.700929,-2,-62,15,91,-98,9,159,-32,-27,18,89,-11,-98,1,-30,-6,-30,1,-50,2,160,14,90,16,55,-40,-26,-59,35,82,-177,-93
1772819485.702882,7,-72,9,94,-100,6,156,-30,-27,20,95,-8,-98,5,-29,-8,-31,2,-52,-1,158,13,90,17,56,-41,-25,-58,38,85,-178,-94
1772819485.7048352,7,-77,11,93,-102,4,154,-31,-27,22,102,-4,-96,12,-24,-5,-29,4,-53,-3,153,13,88,10,55,-42,-25,-60,38,85,-179,-95
1772819485.7067883,2,-68,16,90,-103,6,154,-35,-27,22,102,-3,-96,16,-20,-1,-26,6,-52,-4,151,13,88,6,54,-43,-29,-61,36,82,-181,-96
1772819485.7087414,2,-55,17,83,-106,3,152,-38,-27,20,99,-4,-95,18,-18,1,-24,10,-50,-2,152,14,89,8,54,-44,-32,-62,35,81,-181,-97
1772819485.7106946,1,-49,16,74,-108,-1,152,-42,-28,17,96,-3,-95,20,-16,3,-20,13,-48,2,154,15,88,8,54,-45,-32,-64,36,80,-182,-97
1772819485.7126477,-1,-46,13,73,-108,-2,157,-44,-29,14,93,-5,-94,21,-17,-2,-26,11,-47,-1,155,16,89,9,57,-43,-30,-61,40,79,-181,-95
1772819485.7146008,-9,-52,4,77,-106,-3,156,-43,-29,14,96,-2,-93,25,-12,0,-24,11,-47,-1,155,16,91,3,60,-42,-28,-60,39,81,-180,-96
1772819485.716554,-16,-66,10,91,-105,0,148,-39,-28,15,100,-1,-93,28,-9,5,-20,12,-49,0,155,15,91,-9,62,-42,-28,-68,36,82,-179,-97
1772819485.718507,-15,-74,17,96,-107,3,146,-37,-30,16,102,0,-95,29,-3,15,-12,15,-49,3,155,11,86,-7,54,-45,-31,-79,30,84,-182,-100
1772819485.7204602,-10,-75,17,90,-110,5,146,-35,-31,17,106,2,-95,32,4,22,-7,16,-50,4,155,9,82,0,47,-47,-32,-78,19,84,-186,-103
1772819485.7224133,-1,-68,18,92,-107,12,148,-31,-30,17,101,1,-97,29,-6,12,-17,11,-51,0,155,9,84,8,49,-44,-23,-67,-1,85,-185,-102
1772819485.7243664,8,-66,15,100,-105,15,147,-32,-30,18,97,-2,-97,27,-11,8,-22,8,-53,-2,153,8,83,8,51,-45,-29,-64,9,88,-185,-101
1772819485.7263196,1,-70,13,102,-103,-2,148,-32,-30,19,97,-1,-97,28,-8,12,-17,10,-52,0,153,9,82,7,55,-47,-42,-60,25,85,-184,-101
1772819485.7282727,-9,-68,14,98,-101,-10,154,-32,-30,17,94,-2,-96,27,-9,13,-12,12,-50,4,153,10,82,10,56,-46,-42,-57,28,76,-184,-100
1772819485.7302258,-9,-69,19,93,-102,-3,159,-31,-31,16,93,-3,-96,24,-10,14,-11,12,-50,8,153,9,81,4,52,-46,-39,-57,33,74,-186,-100
1772819485.732179,-2,-83,26,90,-105,16,157,-34,-30,19,97,-2,-97,24,-9,12,-16,10,-50,6,155,9,80,-5,46,-47,-37,-60,38,77,-186,-100
1772819485.734132,-3,-83,27,91,-108,30,159,-35,-30,23,101,1,-98,24,-7,11,-21,9,-51,3,154,9,79,-8,45,-49,-35,-67,39,81,-187,-102
1772819485.7360852,-2,-78,25,95,-109,25,161,-33,-32,23,99,0,-99,23,-7,11,-22,9,-52,3,153,8,79,-4,46,-52,-34,-66,37,83,-188,-104
1772819485.7380383,2,-72,23,98,-111,22,159,-35,-34,20,94,-4,-100,20,-9,10,-22,10,-50,6,156,9,80,3,44,-52,-35,-62,38,85,-187,-105
1772819485.7399914,-1,-65,17,96,-113,16,156,-38,-34,17,92,-7,-99,18,-8,13,-12,14,-46,12,161,10,80,3,41,-52,-38,-64,34,86,-188,-104
1772819485.7419446,-1,-64,21,94,-114,10,158,-41,-35,16,95,-9,-98,16,-5,18,-6,15,-45,14,163,9,82,3,45,-53,-42,-67,31,85,-191,-104
1772819485.7438977,2,-61,25,89,-114,5,159,-43,-35,14,98,-10,-100,13,-3,17,-9,12,-45,12,163,10,84,5,52,-52,-41,-65,31,83,-191,-103
1772819485.7458508,3,-57,25,89,-111,4,158,-42,-33,14,99,-12,-101,9,-7,11,-20,7,-47,5,161,11,88,6,56,-47,-33,-61,40,72,-188,-100
1772819485.747804,4,-54,24,97,-106,5,158,-40,-32,13,96,-15,-101,3,-19,-3,-27,4,-46,4,162,13,91,9,55,-44,-25,-63,51,64,-184,-96
1772819485.749757,0,-50,23,103,-105,7,158,-37,-32,16,97,-16,-103,0,-24,-7,-27,4,-47,6,165,12,89,9,50,-45,-32,-69,56,79,-183,-95
1772819485.7517102,-5,-51,20,108,-104,8,158,-34,-31,18,93,-17,-103,-2,-26,-5,-26,5,-47,8,166,12,88,7,51,-43,-36,-65,31,96,-181,-94
1772819485.7536633,0,-59,21,109,-103,8,162,-32,-30,17,83,-20,-103,-7,-31,-6,-26,5,-46,10,166,12,89,7,57,-41,-33,-56,16,104,-180,-93
1772819485.7556164,8,-67,23,109,-102,11,169,-31,-30,20,81,-19,-104,-8,-31,-8,-31,3,-47,8,167,11,88,9,56,-43,-34,-57,23,101,-181,-93
1772819485.7575696,6,-71,16,104,-102,11,170,-31,-30,21,86,-18,-102,-8,-30,-9,-31,4,-46,8,168,11,89,13,59,-44,-33,-60,31,94,-182,-93
1772819485.7595227,-3,-68,14,99,-103,10,167,-32,-28,20,89,-16,-101,-5,-28,-9,-29,4,-45,8,169,13,90,18,60,-42,-32,-61,31,86,-183,-93
1772819485.7614758,-5,-63,22,96,-104,12,166,-33,-27,20,93,-13,-101,0,-22,-4,-25,6,-46,7,164,14,89,0,54,-43,-32,-61,29,82,-184,-92
1772819485.763429,-1,-61,25,91,-104,11,163,-35,-27,20,95,-11,-100,2,-20,0,-23,6,-46,12,164,15,89,-16,52,-45,-32,-60,29,85,-185,-93
1772819485.765382,-2,-59,24,92,-105,12,163,-35,-27,18,92,-11,-100,1,-25,-2,-23,5,-46,10,165,14,89,-5,54,-47,-32,-57,31,86,-185,-95
1772819485.7673352,-3,-55,24,96,-106,14,166,-33,-26,19,90,-11,-101,0,-29,-5,-23,5,-47,4,162,12,88,4,56,-50,-33,-53,32,85,-186,-97
1772819485.7692883,1,-48,22,100,-107,14,172,-31,-25,24,92,-9,-102,0,-30,-11,-29,2,-50,-1,162,11,87,12,57,-50,-28,-57,26,82,-186,-98
1772819485.7712414,3,-48,20,101,-107,15,175,-28,-24,29,101,-4,-101,6,-24,-10,-32,0,-51,-2,162,9,85,11,56,-51,-28,-71,19,78,-187,-99
1772819485.7731946,-8,-56,20,100,-107,18,177,-29,-24,30,108,0,-100,11,-18,-3,-28,1,-50,0,160,10,83,7,51,-54,-41,-72,25,78,-191,-99
1772819485.7751477,-11,-62,24,103,-106,19,176,-32,-24,27,104,-2,-101,9,-22,-4,-29,0,-50,1,159,11,84,8,52,-53,-45,-64,34,83,-190,-98
1772819485.7771008,-6,-58,28,103,-104,22,167,-32,-25,26,98,-5,-103,8,-28,-7,-31,-1,-52,1,159,11,85,10,53,-50,-44,-62,37,86,-188,-95
1772819485.779054,-3,-54,29,100,-104,21,161,-33,-26,25,95,-5,-103,13,-20,-2,-28,-1,-52,1,157,9,84,5,50,-50,-46,-64,36,87,-187,-94
1772819485.781007,0,-57,27,102,-104,14,164,-34,-27,21,91,-5,-103,12,-19,-2,-26,-1,-53,3,157,9,84,3,50,-48,-48,-66,45,92,-186,-95
1772819485.7829602,2,-64,19,101,-104,10,170,-34,-26,19,92,-5,-103,13,-23,-3,-27,0,-53,1,156,9,85,6,52,-46,-46,-64,47,96,-186,-94
1772819485.7849133,1,-85,16,112,-102,11,167,-32,-24,22,101,-2,-101,18,-17,1,-27,2,-52,-4,156,9,86,7,55,-45,-37,-61,9,92,-185,-93
1772819485.7868664,3,-97,16,121,-100,14,162,-30,-25,23,101,-1,-100,20,-16,1,-27,3,-52,-4,155,9,86,3,60,-44,-32,-60,0,89,-183,-93
1772819485.7888196,4,-86,7,116,-103,11,159,-35,-28,21,97,-3,-101,19,-15,2,-23,6,-50,0,156,8,84,4,63,-46,-39,-60,27,88,-184,-96
1772819485.7907727,2,-72,7,110,-106,9,158,-40,-31,17,93,-6,-101,18,-15,3,-20,9,-47,4,158,9,85,7,60,-48,-44,-62,42,87,-186,-98
1772819485.7927258,-1,-67,16,103,-107,7,159,-41,-32,17,93,-6,-101,18,-16,5,-20,10,-46,7,160,10,86,7,52,-49,-46,-60,43,85,-186,-99
1772819485.794679,-4,-61,26,98,-108,9,161,-43,-32,18,95,-5,-101,19,-12,9,-19,9,-47,6,160,10,87,3,45,-51,-47,-61,39,84,-187,-99
1772819485.796632,-5,-56,28,97,-107,10,163,-44,-33,19,98,-5,-101,19,-11,8,-21,6,-48,3,159,10,88,4,47,-52,-47,-61,37,85,-188,-101
1772819485.7985852,1,-57,26,97,-107,10,164,-44,-33,20,103,-5,-103,18,-15,2,-26,5,-48,3,157,9,88,7,53,-52,-44,-61,35,88,-188,-101
1772819485.8005383,1,-61,23,104,-108,13,163,-41,-33,21,104,-4,-104,18,-13,4,-24,8,-48,5,155,7,86,6,52,-52,-42,-70,32,88,-188,-101
1772819485.8024914,-5,-59,23,114,-108,12,161,-40,-33,21,101,-3,-104,18,-10,7,-21,9,-48,6,155,7,85,6,49,-51,-44,-78,29,88,-187,-100
1772819485.8044446,-12,-59,22,112,-110,7,159,-44,-33,19,95,-4,-103,19,-7,11,-17,12,-46,7,158,8,86,12,51,-51,-45,-75,31,86,-189,-101
1772819485.8063977,-15,-63,17,105,-109,3,157,-48,-33,17,95,-4,-102,22,-2,18,-9,16,-45,10,159,10,85,11,48,-50,-46,-68,31,82,-190,-101
1772819485.8083508,-8,-64,16,102,-107,11,153,-48,-31,16,95,-5,-101,22,-2,16,-10,17,-45,10,158,10,84,3,46,-50,-47,-66,32,83,-190,-100
1772819485.810304,3,-65,18,100,-103,11,150,-46,-30,14,91,-6,-101,19,-10,6,-18,14,-46,6,157,12,85,-2,49,-47,-42,-67,44,87,-185,-96
1772819485.812257,4,-73,19,94,-102,-7,151,-44,-29,13,93,-6,-100,19,-8,7,-15,15,-45,6,156,14,86,-1,49,-47,-44,-71,53,90,-184,-93
1772819485.8142102,2,-74,21,92,-102,-8,156,-43,-28,13,98,-6,-98,18,-8,7,-15,15,-44,5,156,15,88,1,53,-44,-40,-72,27,85,-182,-90
1772819485.8161633,1,-77,21,93,-104,4,156,-47,-29,11,100,-8,-97,17,-7,11,-12,15,-43,6,157,15,88,-6,60,-43,-33,-69,14,79,-182,-92
1772819485.8181164,4,-71,22,96,-110,21,155,-55,-32,9,96,-10,-99,15,-5,13,-11,14,-44,7,158,12,87,-8,63,-45,-29,-65,24,71,-183,-97
1772819485.8200696,8,-57,29,99,-112,27,160,-56,-33,13,96,-12,-102,11,-13,5,-20,8,-49,2,157,10,85,-3,62,-48,-36,-59,40,70,-183,-100
1772819485.8220227,10,-43,33,96,-111,23,162,-53,-32,14,100,-12,-102,8,-21,-1,-24,5,-51,0,155,9,84,-3,58,-50,-45,-55,46,84,-183,-101
1772819485.8239758,5,-37,32,95,-109,18,159,-54,-32,14,96,-13,-102,7,-22,-3,-28,3,-52,0,155,10,86,-1,59,-48,-43,-58,45,98,-180,-99
1772819485.825929,-6,-39,34,98,-106,18,160,-53,-32,13,87,-14,-103,5,-24,-6,-31,1,-52,0,156,12,88,7,62,-44,-40,-65,46,103,-177,-96
1772819485.827882,-20,-42,35,98,-103,17,160,-52,-32,10,78,-16,-103,3,-25,-8,-30,1,-51,1,159,13,91,12,64,-39,-36,-64,48,99,-175,-93
1772819485.8298352,-23,-48,28,96,-101,12,161,-52,-32,10,78,-16,-103,0,-26,-9,-30,1,-51,1,160,14,94,9,67,-36,-31,-58,50,96,-172,-91
1772819485.8317883,-11,-52,24,91,-99,11,164,-49,-32,12,82,-17,-104,-1,-25,-6,-28,0,-51,0,159,13,94,3,67,-35,-31,-58,48,95,-171,-91
1772819485.8337414,1,-47,25,89,-99,11,162,-45,-31,13,84,-17,-105,-1,-23,-6,-28,-2,-53,-3,156,11,92,1,67,-36,-32,-63,45,97,-171,-92
1772819485.8356946,13,-35,26,96,-99,11,159,-43,-31,13,83,-19,-107,-4,-25,-10,-31,-4,-56,-4,155,9,90,4,67,-37,-30,-66,43,96,-171,-94
1772819485.8376477,7,-35,24,101,-98,11,162,-41,-31,11,79,-20,-107,-6,-28,-9,-34,-5,-57,-3,156,8,87,8,64,-38,-29,-62,53,99,-170,-95
1772819485.8396008,-2,-48,21,105,-97,13,167,-40,-32,9,75,-22,-107,-7,-28,-8,-32,-6,-57,-3,156,8,86,7,63,-39,-30,-57,63,103,-171,-95
1772819485.841554,8,-59,18,108,-95,14,161,-40,-32,9,73,-22,-107,-7,-30,-7,-32,-5,-55,-2,156,10,89,9,68,-36,-20,-50,34,103,-170,-92
1772819485.843507,21,-67,17,109,-95,15,160,-43,-30,7,69,-22,-107,-7,-33,-9,-34,-4,-54,-2,156,11,91,7,71,-34,-13,-46,23,103,-169,-90
1772819485.8454602,22,-78,17,115,-97,17,165,-47,-29,6,71,-20,-107,-5,-32,-6,-33,-3,-54,0,157,11,90,3,65,-36,-23,-55,42,104,-171,-90
1772819485.8474133,16,-79,20,122,-100,18,163,-47,-28,9,78,-17,-107,-1,-28,-4,-31,-2,-54,1,157,11,90,2,64,-40,-32,-62,49,99,-173,-92
1772819485.8493664,15,-61,24,119,-104,17,159,-47,-29,10,83,-16,-107,1,-28,-4,-28,-1,-54,3,158,10,88,6,67,-43,-35,-66,45,91,-176,-94
1772819485.8513196,13,-52,26,119,-106,13,163,-47,-31,11,85,-16,-107,1,-29,-5,-26,-1,-56,2,160,7,86,9,73,-44,-35,-68,43,88,-178,-98
1772819485.8532727,8,-49,31,121,-108,14,164,-46,-31,13,85,-16,-109,0,-30,-7,-29,-2,-58,0,160,5,84,12,78,-46,-33,-64,42,90,-179,-100
1772819485.8552258,1,-48,31,117,-108,15,162,-45,-32,14,88,-15,-109,3,-26,-4,-29,-1,-57,0,158,4,82,14,69,-46,-30,-64,48,93,-180,-102
1772819485.857179,-1,-52,27,111,-109,13,163,-46,-32,17,95,-13,-109,4,-20,0,-25,0,-57,1,157,3,79,14,62,-48,-37,-66,60,97,-183,-103
1772819485.859132,1,-57,25,111,-108,12,166,-48,-32,18,97,-11,-108,4,-19,2,-20,1,-56,3,158,4,81,12,64,-48,-40,-63,40,94,-183,-101
1772819485.8610852,7,-66,18,109,-108,9,168,-51,-32,17,98,-11,-107,7,-18,4,-15,4,-53,7,160,6,83,12,62,-46,-33,-61,22,88,-183,-98
1772819485.8630383,7,-74,11,106,-109,5,173,-53,-33,16,98,-11,-106,9,-17,5,-12,5,-52,12,163,6,82,15,61,-46,-35,-62,26,90,-182,-99
1772819485.8649914,5,-70,13,112,-107,5,172,-52,-34,15,98,-12,-108,8,-20,-2,-24,-1,-53,7,165,6,85,11,68,-45,-34,-56,34,93,-179,-99
1772819485.8669446,5,-65,19,121,-106,11,165,-49,-35,16,104,-11,-109,8,-23,-7,-33,-4,-55,2,166,5,85,2,72,-45,-35,-55,35,94,-178,-99
1772819485.8688977,0,-60,25,127,-107,17,161,-47,-35,18,105,-10,-109,10,-24,-5,-28,-2,-54,6,166,4,82,6,65,-50,-40,-61,31,90,-180,-102
1772819485.8708508,-8,-52,25,130,-109,16,161,-48,-35,17,100,-10,-108,13,-24,-2,-24,1,-53,12,166,3,81,14,62,-53,-47,-63,32,87,-182,-104
1772819485.872804,-7,-46,24,130,-110,11,160,-49,-36,16,98,-9,-107,14,-22,-1,-24,0,-53,12,166,4,82,18,61,-54,-50,-62,35,88,-183,-105
1772819485.874757,-7,-49,26,126,-112,9,160,-48,-37,16,100,-9,-106,14,-19,2,-21,2,-51,12,165,5,82,18,61,-56,-51,-60,34,87,-186,-107
1772819485.8767102,-14,-58,23,120,-114,7,156,-51,-36,16,103,-6,-103,17,-12,6,-15,8,-49,12,167,7,82,23,61,-56,-48,-59,24,85,-190,-106
1772819485.8786633,-14,-67,16,115,-113,4,155,-54,-34,16,98,-5,-100,20,-8,9,-10,12,-47,7,170,9,85,31,63,-55,-47,-62,19,83,-191,-104
1772819485.8806164,-6,-70,16,115,-112,3,153,-53,-33,14,94,-5,-101,21,-7,11,-6,13,-45,6,168,10,86,19,60,-53,-53,-69,30,84,-189,-102
1772819485.8825696,-2,-65,21,119,-113,3,146,-53,-35,10,94,-9,-104,19,-7,14,-3,13,-46,12,164,8,84,1,57,-52,-52,-70,50,85,-186,-103
1772819485.8845227,1,-57,25,120,-115,5,143,-57,-39,5,92,-14,-109,13,-11,10,-9,10,-49,13,165,4,83,13,58,-52,-47,-63,70,81,-184,-106
1772819485.8864758,6,-57,30,127,-112,12,146,-55,-40,4,91,-17,-110,9,-17,1,-20,4,-52,8,165,2,85,22,65,-48,-37,-55,58,70,-180,-104
1772819485.888429,6,-57,26,133,-110,14,151,-52,-40,5,92,-18,-111,8,-18,-1,-22,2,-54,7,163,2,84,16,68,-47,-33,-52,39,78,-178,-102
1772819485.890382,0,-55,21,138,-108,14,158,-51,-42,3,89,-20,-114,4,-20,-1,-20,2,-55,8,165,1,82,12,69,-48,-35,-54,38,97,-177,-101
1772819485.8923352,-9,-53,21,141,-107,0,156,-49,-42,4,90,-18,-114,4,-18,2,-16,5,-54,10,164,1,81,8,69,-48,-38,-58,40,103,-177,-100
1772819485.8942883,-15,-46,14,143,-105,-9,154,-46,-39,9,91,-15,-110,6,-16,3,-17,5,-53,10,162,3,82,3,67,-47,-40,-57,36,102,-176,-100
1772819485.8962414,-13,-44,8,143,-105,-2,157,-47,-37,13,95,-14,-108,8,-14,4,-16,6,-53,10,162,4,79,4,59,-48,-39,-55,18,104,-178,-100
1772819485.8981946,-2,-50,13,143,-111,11,160,-51,-40,13,99,-14,-109,7,-11,5,-18,5,-55,8,160,2,77,8,63,-52,-40,-55,15,104,-181,-104
1772819485.9001477,9,-64,29,146,-118,26,162,-55,-42,11,98,-16,-111,4,-15,1,-23,3,-57,5,160,-1,77,12,68,-55,-45,-53,35,102,-184,-108
1772819485.9021008,10,-78,34,149,-119,27,161,-51,-41,11,96,-16,-110,3,-17,3,-18,5,-55,8,161,-1,74,12,62,-59,-49,-52,47,100,-186,-110
1772819485.904054,7,-76,34,145,-118,22,162,-48,-39,11,94,-16,-110,4,-16,5,-15,5,-55,10,161,0,74,10,56,-60,-50,-49,49,98,-186,-110
1772819485.906007,7,-66,33,141,-116,17,164,-48,-39,10,95,-15,-109,3,-18,2,-19,3,-57,7,160,-1,76,8,58,-57,-46,-45,49,94,-186,-109
1772819485.9079602,1,-62,28,148,-114,15,167,-50,-39,9,92,-16,-109,0,-22,-3,-24,0,-58,6,160,0,78,9,63,-54,-43,-45,61,97,-186,-107
1772819485.9099133,-5,-59,25,151,-113,16,163,-50,-38,8,86,-19,-110,-4,-24,-6,-29,-1,-59,6,159,0,79,12,68,-53,-46,-45,71,106,-184,-105
1772819485.9118664,0,-45,30,148,-110,20,158,-49,-37,9,89,-19,-110,-6,-27,-10,-35,-4,-61,1,158,1,82,12,71,-49,-43,-44,46,106,-181,-103
1772819485.9138196,4,-47,32,139,-108,16,159,-47,-35,11,90,-17,-109,-6,-28,-12,-36,-5,-61,-3,158,3,84,10,72,-45,-34,-42,34,103,-178,-100
1772819485.9157727,1,-52,34,137,-107,14,164,-44,-33,12,88,-16,-108,-7,-32,-14,-38,-5,-61,-4,157,5,85,7,67,-43,-33,-45,41,102,-175,-97
1772819485.9177258,1,-47,35,138,-107,16,163,-42,-33,12,89,-16,-109,-5,-32,-17,-39,-6,-62,-4,156,4,84,6,64,-42,-33,-53,45,103,-174,-97
1772819485.919679,1,-45,33,141,-108,18,161,-42,-34,12,92,-14,-110,-2,-28,-14,-37,-6,-64,-4,154,3,82,7,62,-43,-34,-56,46,103,-175,-98
1772819485.921632,2,-39,36,144,-107,18,162,-44,-33,10,92,-14,-111,-1,-27,-14,-38,-6,-65,-7,153,3,82,6,57,-44,-36,-58,47,103,-174,-98
1772819485.9235852,4,-36,36,142,-109,12,161,-47,-33,9,93,-15,-110,0,-29,-14,-36,-4,-63,-6,155,5,83,6,58,-45,-36,-57,47,103,-175,-98
1772819485.9255383,3,-37,35,137,-110,11,161,-49,-33,8,92,-15,-107,0,-29,-12,-33,-3,-61,-3,157,7,85,0,64,-45,-34,-58,44,100,-178,-97
1772819485.9274914,3,-37,37,135,-110,12,160,-50,-31,7,91,-14,-103,2,-25,-7,-31,-1,-61,-2,158,8,87,-10,65,-46,-33,-60,37,98,-180,-96
1772819485.9294446,9,-39,32,138,-110,11,160,-51,-31,6,92,-13,-103,4,-24,-7,-31,-1,-62,0,159,8,84,-5,61,-47,-36,-58,33,98,-181,-96
1772819485.9313977,15,-47,29,145,-109,8,165,-52,-32,7,93,-13,-105,6,-27,-9,-31,-3,-62,2,159,7,83,-4,62,-47,-32,-59,27,100,-180,-96
1772819485.9333508,16,-52,27,148,-109,5,169,-52,-33,8,90,-13,-107,6,-29,-10,-32,-3,-64,0,158,6,83,-1,67,-47,-28,-63,31,105,-180,-96
1772819485.935304,18,-58,25,153,-109,6,168,-51,-34,8,90,-13,-109,5,-29,-10,-32,-4,-65,-4,158,4,81,6,69,-49,-31,-66,44,108,-180,-99
1772819485.937257,12,-60,24,157,-109,7,162,-50,-33,6,91,-13,-109,7,-25,-9,-29,-4,-66,-2,159,2,79,8,70,-51,-36,-64,52,107,-180,-101
1772819485.9392102,6,-52,27,157,-109,11,159,-49,-35,6,90,-13,-111,6,-25,-8,-29,-5,-67,0,159,-1,78,9,66,-52,-42,-57,65,102,-180,-104
1772819485.9411633,7,-41,30,152,-109,14,159,-48,-35,8,90,-13,-113,5,-29,-10,-28,-5,-67,1,158,-3,77,6,59,-53,-46,-54,77,94,-179,-105
1772819485.9431164,-2,-44,29,141,-109,13,158,-48,-34,9,90,-12,-111,7,-26,-6,-23,-2,-65,6,161,0,79,9,62,-50,-42,-52,64,78,-177,-102
1772819485.9450696,-15,-55,28,130,-108,6,158,-51,-33,9,89,-11,-107,9,-21,1,-17,2,-60,13,162,4,83,14,65,-47,-36,-52,47,73,-177,-102
1772819485.9470227,-13,-58,31,123,-109,4,160,-55,-34,8,88,-12,-106,8,-20,2,-13,6,-58,15,161,3,83,15,64,-47,-39,-54,39,91,-179,-104
1772819485.9489758,-4,-55,29,121,-112,5,160,-55,-34,10,94,-11,-107,9,-18,2,-12,7,-59,8,159,2,81,13,61,-50,-44,-58,34,109,-181,-106
1772819485.950929,-3,-50,28,117,-115,5,162,-55,-37,11,95,-12,-108,10,-16,5,-8,10,-58,8,161,3,80,12,58,-53,-44,-60,34,112,-183,-108
1772819485.952882,-2,-51,27,120,-117,5,164,-55,-38,10,91,-13,-108,8,-15,6,-5,10,-57,11,164,3,81,15,55,-55,-45,-61,39,106,-185,-108
1772819485.9548352,6,-64,23,129,-117,7,165,-53,-37,16,97,-10,-107,8,-15,3,-11,7,-57,10,164,3,82,14,55,-56,-45,-62,32,102,-185,-106
1772819485.9567883,14,-76,19,137,-112,11,166,-50,-34,19,95,-9,-106,7,-19,-3,-19,5,-57,9,163,5,85,8,60,-53,-40,-59,15,104,-181,-102
1772819485.9587414,11,-72,23,138,-108,12,163,-51,-32,14,89,-10,-106,5,-23,-7,-22,7,-55,13,164,7,87,3,56,-50,-38,-58,14,104,-178,-98
1772819485.9606946,5,-54,30,133,-108,8,159,-54,-34,7,86,-14,-108,2,-24,-4,-19,7,-56,17,167,7,88,-8,56,-49,-42,-59,35,99,-178,-97
1772819485.9626477,1,-44,30,125,-109,4,157,-59,-37,2,85,-18,-111,0,-24,0,-12,8,-55,20,166,6,86,-3,56,-50,-47,-58,59,98,-181,-98
1772819485.9646008,-3,-42,23,120,-111,4,158,-62,-39,3,87,-18,-111,-1,-23,1,-10,9,-53,19,166,7,85,5,61,-49,-52,-57,63,99,-181,-98
1772819485.966554,-5,-50,24,123,-110,5,160,-61,-39,6,90,-18,-110,-1,-23,1,-13,9,-53,14,166,7,88,4,74,-47,-43,-51,37,93,-179,-97
1772819485.968507,1,-66,25,135,-107,7,160,-56,-38,7,86,-19,-110,-5,-31,-8,-22,8,-53,12,167,9,91,1,82,-43,-28,-52,24,93,-175,-95
1772819485.9704602,10,-79,28,144,-106,12,163,-54,-37,7,85,-20,-110,-6,-35,-12,-22,10,-52,16,168,8,89,8,71,-43,-26,-68,22,97,-174,-96
1772819485.9724133,16,-71,34,140,-108,11,166,-57,-38,9,93,-19,-111,-5,-33,-10,-20,11,-52,13,167,7,86,18,58,-48,-39,-72,31,99,-177,-99
1772819485.9743664,21,-54,40,136,-109,12,161,-59,-38,8,90,-21,-113,-7,-35,-16,-28,7,-55,7,168,8,87,25,55,-49,-46,-63,42,104,-177,-100
1772819485.9763196,18,-44,37,138,-110,14,152,-60,-38,5,74,-23,-112,-7,-34,-15,-29,6,-54,11,171,8,89,24,56,-50,-48,-56,49,104,-178,-98
1772819485.9782727,10,-42,36,139,-112,11,147,-63,-38,2,64,-23,-110,-4,-28,-7,-18,11,-52,20,171,9,88,20,55,-53,-49,-55,49,100,-180,-99
1772819485.9802258,2,-40,38,139,-112,10,142,-62,-38,1,66,-22,-110,-4,-25,-5,-16,12,-52,18,170,10,88,18,57,-53,-47,-55,50,99,-180,-100
1772819485.982179,-4,-38,38,141,-110,14,144,-59,-37,3,76,-23,-110,-3,-25,-9,-19,10,-56,13,168,8,87,17,59,-53,-44,-56,49,98,-179,-100
1772819485.984132,0,-36,38,148,-109,20,149,-53,-36,5,78,-23,-112,-5,-28,-11,-21,6,-61,7,163,4,84,14,60,-53,-42,-55,48,99,-177,-102
1772819485.9860852,8,-36,36,159,-105,30,152,-46,-35,6,74,-23,-115,-10,-38,-19,-29,1,-64,1,158,2,83,16,62,-51,-40,-52,49,102,-173,-102
1772819485.9880383,9,-43,31,163,-103,25,159,-46,-35,9,80,-20,-115,-10,-37,-17,-25,2,-64,4,155,0,81,9,60,-50,-40,-53,47,101,-173,-102
1772819485.9899914,7,-47,31,164,-100,2,166,-47,-33,13,87,-19,-114,-6,-35,-16,-26,1,-65,6,152,-1,79,5,60,-49,-38,-55,47,102,-173,-100
1772819485.9919446,7,-45,30,160,-98,-1,168,-49,-32,13,81,-19,-114,-3,-34,-16,-23,0,-64,8,152,0,79,6,60,-47,-37,-58,45,101,-172,-98
1772819485.9938977,12,-44,29,151,-98,7,177,-55,-32,12,80,-18,-114,1,-32,-18,-29,-4,-66,3,152,1,82,2,63,-45,-36,-58,45,98,-172,-95
1772819485.9958508,14,-43,34,149,-102,24,179,-61,-33,11,78,-17,-114,2,-35,-22,-39,-9,-68,-4,151,1,83,3,68,-42,-32,-61,52,98,-171,-94
1772819485.997804,10,-44,35,150,-101,33,169,-60,-34,9,77,-18,-112,0,-36,-22,-39,-9,-68,-2,152,0,84,6,67,-44,-36,-65,62,101,-171,-93
1772819485.999757,6,-48,34,149,-99,30,164,-53,-31,14,85,-14,-111,4,-31,-20,-39,-9,-66,-2,151,1,84,5,64,-45,-41,-62,46,97,-171,-92
1772819486.0017102,8,-46,34,150,-100,28,167,-49,-30,17,88,-12,-111,5,-32,-19,-37,-7,-66,-5,152,1,83,4,58,-48,-38,-59,32,96,-170,-93
1772819486.0036633,6,-49,33,147,-102,24,170,-48,-30,17,88,-12,-109,8,-31,-18,-35,-4,-64,-5,152,2,82,6,53,-50,-38,-57,34,96,-172,-95
1772819486.0056164,3,-50,32,139,-104,22,171,-52,-30,19,90,-8,-107,11,-28,-17,-34,-3,-62,-2,151,3,82,7,50,-50,-39,-56,37,94,-174,-96
1772819486.0075696,2,-49,35,138,-104,22,174,-53,-31,20,91,-8,-108,12,-28,-19,-36,-4,-62,-3,151,2,83,8,52,-50,-41,-57,39,95,-175,-96
1772819486.0095227,2,-55,33,142,-105,21,174,-54,-32,17,88,-9,-109,11,-29,-19,-37,-5,-62,-4,153,4,86,10,58,-47,-42,-60,39,98,-175,-95
1772819486.0114758,-1,-69,25,142,-105,16,169,-56,-32,14,87,-10,-108,12,-27,-14,-30,-1,-59,2,156,5,87,11,58,-45,-41,-60,40,100,-174,-94
1772819486.013429,1,-69,22,141,-107,14,167,-56,-33,13,87,-10,-109,12,-26,-9,-26,2,-58,5,157,4,87,11,55,-44,-41,-60,39,99,-174,-96
1772819486.015382,6,-57,27,142,-107,15,168,-55,-34,13,85,-10,-111,9,-27,-13,-30,0,-60,4,159,2,85,10,57,-45,-42,-59,41,98,-174,-99
1772819486.0173352,9,-56,32,145,-108,13,168,-56,-35,13,85,-11,-112,8,-27,-17,-32,-1,-62,6,159,0,83,11,60,-47,-41,-55,44,100,-174,-102
1772819486.0192883,6,-56,30,148,-110,13,167,-53,-36,15,90,-9,-111,11,-21,-13,-31,-1,-63,3,156,-1,81,6,59,-49,-41,-55,44,100,-175,-103
1772819486.0212414,1,-49,30,147,-110,15,168,-50,-35,14,91,-9,-110,11,-20,-11,-32,0,-65,1,156,-1,82,-1,61,-48,-36,-55,39,93,-172,-104
1772819486.0231946,-2,-45,33,145,-109,17,170,-51,-34,13,86,-11,-109,8,-26,-9,-27,4,-62,3,157,0,84,-2,65,-48,-33,-55,37,77,-172,-104
1772819486.0251477,-2,-44,34,141,-111,15,168,-54,-34,13,86,-10,-107,7,-26,-7,-25,5,-61,1,156,1,84,-3,68,-49,-39,-58,49,82,-175,-105
1772819486.0271008,-6,-43,34,139,-112,14,169,-58,-34,13,87,-11,-107,7,-24,-6,-25,5,-62,1,155,1,84,-9,67,-52,-47,-62,57,108,-177,-106
1772819486.029054,-9,-42,33,138,-109,13,170,-59,-33,13,88,-11,-107,6,-27,-10,-27,7,-61,7,156,2,83,-1,65,-51,-51,-59,38,117,-175,-104
1772819486.031007,-7,-45,35,137,-105,16,165,-58,-33,13,90,-12,-108,5,-30,-13,-29,9,-61,9,158,2,84,10,62,-48,-48,-59,27,108,-173,-102
1772819486.0329602,-2,-57,34,136,-105,18,160,-57,-32,12,90,-12,-109,5,-27,-8,-24,11,-61,9,160,2,83,11,60,-49,-48,-63,34,104,-174,-101
1772819486.0349133,4,-60,37,145,-103,21,162,-54,-32,12,86,-13,-109,3,-28,-11,-26,9,-61,5,159,1,81,8,57,-51,-48,-68,44,104,-173,-100
1772819486.0368664,11,-62,37,152,-101,22,166,-51,-32,12,88,-14,-110,2,-30,-13,-28,8,-62,0,157,0,79,7,49,-50,-49,-66,47,102,-172,-98
1772819486.0388196,13,-68,32,146,-104,18,165,-53,-32,12,93,-13,-110,4,-24,-5,-19,11,-61,5,156,1,78,9,43,-51,-54,-62,45,99,-174,-99
1772819486.0407727,10,-63,33,139,-106,18,171,-57,-35,10,93,-15,-111,3,-22,-3,-18,12,-61,6,157,1,79,10,45,-50,-54,-59,43,97,-174,-99
1772819486.0427258,10,-56,31,137,-106,18,178,-59,-36,7,91,-18,-112,-1,-27,-6,-19,11,-60,7,159,1,81,10,50,-47,-52,-62,43,98,-174,-98
1772819486.044679,9,-48,28,138,-105,16,173,-59,-36,6,90,-19,-112,-2,-30,-9,-20,10,-60,9,161,2,82,9,53,-46,-49,-62,44,98,-174,-97
1772819486.046632,11,-37,30,133,-107,17,166,-60,-36,6,89,-18,-111,-2,-29,-7,-19,10,-60,10,162,3,82,5,53,-47,-49,-63,43,98,-175,-98
1772819486.0485852,11,-30,35,131,-109,19,166,-63,-38,5,89,-20,-109,-3,-28,-4,-17,10,-60,9,163,3,81,5,54,-50,-50,-63,42,97,-176,-102
1772819486.0505383,10,-26,33,133,-111,16,162,-63,-39,3,88,-21,-110,-3,-27,-1,-14,11,-59,13,165,1,83,9,59,-51,-48,-67,41,95,-177,-104
1772819486.0524914,10,-28,34,139,-114,13,161,-61,-40,4,91,-20,-111,-3,-31,-6,-18,8,-60,16,166,0,84,12,64,-51,-45,-69,42,98,-178,-106
1772819486.0544446,7,-31,38,143,-113,16,167,-59,-38,6,94,-18,-112,-2,-35,-15,-29,1,-63,11,164,-1,84,17,61,-52,-43,-62,45,100,-177,-106
1772819486.0563977,5,-31,38,143,-113,18,171,-59,-36,9,98,-16,-112,2,-29,-11,-30,0,-65,7,160,-1,81,15,53,-54,-44,-61,47,101,-178,-107
1772819486.0583508,4,-36,36,140,-115,14,172,-62,-37,11,102,-15,-112,4,-23,-3,-23,1,-65,6,159,-3,80,4,50,-55,-48,-60,58,103,-180,-109
1772819486.060304,3,-35,33,138,-114,11,175,-61,-37,10,97,-16,-112,2,-28,-5,-23,2,-64,9,161,-2,82,5,54,-54,-50,-56,56,105,-179,-108
1772819486.062257,4,-32,38,139,-108,16,178,-59,-35,11,91,-17,-112,0,-34,-15,-37,-4,-66,3,160,-1,84,16,60,-49,-45,-51,39,105,-175,-105
1772819486.0642102,6,-31,41,135,-106,21,175,-58,-33,14,93,-15,-112,4,-33,-17,-41,-7,-68,-5,157,-1,83,17,63,-50,-43,-48,35,102,-174,-104
1772819486.0661633,10,-31,40,137,-106,24,172,-57,-33,14,95,-15,-114,5,-33,-15,-35,-8,-70,-1,154,-3,79,12,62,-53,-44,-47,38,101,-174,-105
1772819486.0681164,11,-27,38,141,-107,24,172,-55,-33,14,95,-16,-116,5,-33,-13,-32,-8,-71,2,154,-5,76,8,59,-55,-43,-50,38,101,-173,-104
1772819486.0700696,12,-17,36,145,-106,23,173,-51,-32,16,99,-14,-116,8,-31,-12,-33,-10,-72,1,155,-5,75,5,49,-54,-42,-62,33,102,-174,-103
1772819486.0720227,11,-16,34,146,-104,25,173,-48,-31,18,101,-14,-115,9,-28,-11,-35,-10,-71,0,156,-4,75,0,44,-53,-42,-66,30,102,-174,-101
1772819486.0739758,7,-25,36,142,-103,23,171,-49,-31,16,97,-15,-114,6,-30,-16,-38,-9,-70,-2,160,-1,79,-1,55,-49,-38,-56,26,102,-175,-99
1772819486.075929,1,-31,38,142,-103,23,169,-51,-31,15,97,-14,-114,5,-31,-19,-37,-10,-69,-1,163,2,81,10,57,-50,-42,-56,27,102,-175,-97
1772819486.077882,1,-35,37,140,-102,27,166,-55,-31,15,99,-12,-114,7,-29,-18,-37,-10,-69,-2,164,2,82,15,53,-51,-51,-59,36,103,-175,-96
1772819486.0798352,-6,-35,30,136,-100,12,166,-56,-31,15,100,-11,-112,9,-26,-17,-37,-9,-67,2,168,4,86,8,57,-48,-45,-58,31,102,-174,-94
1772819486.0817883,-10,-32,28,134,-99,1,167,-55,-31,15,102,-10,-110,11,-24,-15,-36,-8,-66,3,168,5,90,-4,62,-45,-36,-60,24,99,-172,-94
1772819486.0837414,-4,-29,33,131,-102,6,166,-56,-31,13,99,-11,-112,10,-25,-14,-34,-6,-67,3,165,3,87,0,61,-47,-35,-64,42,90,-174,-97
1772819486.0856946,4,-23,39,126,-109,21,167,-61,-34,11,99,-13,-115,8,-28,-16,-33,-5,-68,4,165,-1,84,9,60,-50,-36,-63,62,75,-177,-101
1772819486.0876477,9,-20,39,121,-114,35,170,-66,-36,13,105,-13,-117,8,-29,-17,-35,-7,-70,2,163,-4,83,13,59,-52,-39,-61,61,79,-180,-103
1772819486.0896008,5,-21,35,125,-113,32,171,-65,-36,14,104,-15,-117,5,-32,-21,-37,-6,-70,1,161,-4,82,14,56,-52,-45,-61,68,105,-181,-102
1772819486.091554,-10,-15,36,128,-109,28,172,-64,-35,17,101,-16,-117,4,-36,-23,-38,-4,-69,2,161,-2,82,15,60,-51,-54,-61,57,119,-179,-100
1772819486.093507,-8,-10,40,129,-105,27,174,-63,-35,18,92,-14,-116,4,-37,-26,-42,-5,-68,-1,162,1,85,14,70,-46,-47,-61,30,111,-175,-97
1772819486.0954602,10,-11,42,127,-104,26,173,-64,-35,14,81,-15,-116,4,-37,-25,-39,-4,-69,1,160,1,85,10,74,-45,-43,-65,29,105,-175,-96
1772819486.0974133,21,-12,41,123,-106,25,172,-64,-35,11,79,-17,-115,5,-34,-19,-33,-2,-68,7,162,1,83,6,69,-48,-46,-67,32,104,-177,-98
1772819486.0993664,17,-16,37,119,-108,23,170,-62,-35,8,83,-17,-113,6,-29,-13,-26,1,-66,10,164,1,82,10,59,-53,-46,-65,34,101,-179,-99
1772819486.1013196,9,-17,36,118,-110,22,169,-58,-36,7,87,-15,-112,9,-22,-8,-22,2,-65,10,163,0,80,9,55,-55,-47,-63,37,101,-180,-102
1772819486.1032727,8,-15,36,119,-109,22,169,-56,-37,6,88,-16,-111,8,-23,-10,-24,2,-64,10,164,-1,81,5,57,-56,-47,-60,40,101,-180,-106
1772819486.1052258,13,-9,36,122,-108,23,168,-57,-37,6,88,-17,-110,5,-28,-17,-29,2,-64,9,164,0,81,6,59,-55,-47,-60,40,101,-179,-106
1772819486.107179,20,-10,35,126,-109,24,167,-58,-37,5,87,-17,-110,5,-28,-14,-27,6,-64,10,163,1,81,11,57,-54,-50,-69,37,99,-179,-105
1772819486.109132,21,-23,30,133,-110,23,162,-60,-37,3,90,-16,-109,6,-25,-10,-23,8,-63,11,163,2,82,12,56,-54,-52,-69,36,97,-180,-104
1772819486.1110852,9,-39,30,144,-108,21,162,-62,-38,2,94,-18,-109,3,-23,-8,-21,9,-62,11,164,2,84,12,57,-52,-50,-64,36,95,-180,-101
1772819486.1130383,-4,-37,25,146,-108,23,164,-63,-38,3,96,-19,-108,2,-23,-6,-16,10,-61,12,166,3,85,6,58,-51,-49,-63,36,94,-181,-99
1772819486.1149914,-6,-28,15,130,-112,11,169,-62,-38,6,101,-18,-106,4,-20,-2,-12,12,-60,12,166,4,85,2,55,-53,-51,-68,45,98,-183,-99
1772819486.1169446,-3,-33,21,121,-113,5,168,-59,-36,7,99,-18,-105,5,-20,-1,-12,13,-58,11,166,5,84,6,50,-53,-53,-69,49,103,-183,-99
1772819486.1188977,-5,-34,18,126,-110,10,163,-54,-34,6,90,-20,-104,3,-27,-5,-14,15,-55,11,168,7,87,12,57,-47,-46,-66,29,96,-179,-97
1772819486.1208508,-4,-30,17,135,-107,14,164,-49,-32,5,83,-21,-104,-1,-35,-13,-23,12,-56,7,167,8,89,15,60,-45,-43,-63,26,93,-176,-95
1772819486.122804,4,-32,25,133,-107,15,163,-50,-30,5,84,-20,-105,-1,-35,-15,-26,10,-56,6,165,7,88,12,58,-46,-45,-63,31,96,-175,-96
1772819486.124757,7,-31,29,128,-108,17,158,-57,-31,3,84,-20,-103,-2,-34,-15,-26,9,-55,6,166,8,90,3,59,-45,-43,-64,37,101,-176,-96
1772819486.1267102,4,-27,27,127,-109,18,157,-61,-32,2,87,-20,-101,-2,-35,-18,-29,9,-55,5,168,11,91,5,61,-43,-41,-69,39,101,-176,-94
1772819486.1286633,1,-23,23,126,-110,11,151,-64,-32,1,89,-19,-102,0,-31,-16,-30,10,-54,5,170,12,92,12,65,-42,-39,-74,37,98,-176,-93
1772819486.1306164,0,-17,27,123,-109,10,149,-65,-31,-1,88,-19,-103,-1,-33,-15,-30,9,-53,7,172,12,94,7,65,-41,-32,-72,28,101,-177,-92
1772819486.1325696,-2,-20,32,122,-107,13,153,-62,-31,0,90,-18,-104,-2,-36,-17,-28,8,-53,8,173,12,95,-8,65,-39,-25,-71,15,101,-176,-90
1772819486.1345227,1,-27,33,122,-108,14,155,-61,-31,2,89,-17,-105,-1,-35,-13,-22,9,-53,10,173,9,91,-7,65,-39,-24,-71,7,100,-175,-91
1772819486.1364758,8,-34,31,122,-110,13,153,-61,-32,3,91,-17,-106,1,-33,-11,-19,8,-55,10,170,6,85,-1,59,-43,-27,-70,25,103,-176,-92
1772819486.138429,15,-34,31,122,-111,15,153,-60,-33,5,97,-16,-108,0,-36,-19,-29,1,-61,3,164,3,82,2,56,-45,-37,-68,67,112,-177,-93
1772819486.140382,19,-29,32,120,-110,16,154,-61,-33,7,97,-16,-107,0,-35,-22,-36,-3,-63,0,162,1,81,7,56,-47,-45,-67,77,115,-178,-93
1772819486.1423352,17,-26,33,119,-108,18,156,-60,-33,9,92,-14,-105,3,-31,-17,-31,-1,-61,3,164,2,82,9,59,-48,-44,-67,46,103,-177,-92
1772819486.1442883,14,-25,34,118,-108,18,160,-58,-32,9,94,-12,-104,6,-28,-15,-32,-1,-61,6,164,3,83,9,61,-49,-43,-69,35,95,-178,-92
1772819486.1462414,17,-26,31,120,-108,17,162,-58,-33,9,102,-12,-104,7,-30,-17,-32,-2,-62,9,164,4,82,7,59,-49,-44,-71,39,91,-179,-94
1772819486.1481946,21,-31,29,123,-107,19,161,-55,-32,12,104,-10,-104,9,-31,-18,-34,-4,-63,7,163,3,81,6,58,-49,-44,-71,41,91,-179,-96
1772819486.1501477,18,-40,32,124,-107,22,164,-51,-30,13,99,-8,-104,12,-28,-14,-36,-5,-65,2,163,1,80,5,55,-50,-42,-70,40,96,-178,-97
1772819486.1521008,11,-47,35,124,-108,22,164,-47,-29,13,97,-8,-104,14,-27,-15,-38,-6,-66,0,164,1,80,4,58,-50,-39,-66,41,98,-178,-97
1772819486.154054,6,-44,34,125,-107,23,162,-49,-30,11,93,-10,-105,13,-28,-17,-40,-5,-66,2,165,2,81,5,61,-50,-36,-67,41,100,-176,-97
1772819486.156007,-1,-37,27,125,-107,23,162,-53,-30,9,90,-12,-103,13,-28,-14,-34,-2,-64,5,168,4,84,5,60,-50,-34,-72,39,99,-176,-95
1772819486.1579602,-3,-32,24,123,-107,21,163,-55,-30,9,89,-11,-101,13,-28,-10,-30,1,-62,5,167,5,85,3,57,-49,-35,-77,37,99,-176,-93
1772819486.1599133,0,-29,25,117,-107,20,165,-54,-30,7,88,-11,-100,14,-28,-11,-32,-1,-61,2,166,7,84,2,53,-48,-35,-75,36,100,-176,-91
1772819486.1618664,3,-31,25,110,-107,21,166,-55,-30,6,92,-11,-101,13,-28,-16,-35,-5,-63,-1,167,7,85,7,54,-46,-33,-66,40,98,-175,-90
1772819486.1638196,5,-38,20,106,-109,20,163,-58,-30,7,96,-11,-102,15,-26,-17,-34,-4,-63,-3,168,7,86,11,60,-45,-30,-61,48,85,-176,-90
1772819486.1657727,4,-39,21,107,-110,21,162,-56,-31,10,97,-9,-101,17,-23,-14,-31,-3,-64,-4,165,6,85,5,64,-45,-29,-61,44,81,-177,-91
1772819486.1677258,4,-39,23,110,-112,22,163,-52,-31,13,98,-7,-102,20,-20,-10,-28,-3,-65,0,163,3,81,-7,67,-48,-32,-66,36,94,-180,-93
1772819486.169679,6,-44,21,111,-114,22,167,-51,-32,13,99,-7,-105,20,-20,-10,-29,-4,-65,4,165,1,77,-4,65,-51,-36,-73,38,112,-181,-96
1772819486.171632,3,-50,16,113,-114,22,165,-52,-32,14,99,-5,-105,22,-18,-9,-31,-3,-65,4,166,1,75,2,57,-53,-42,-74,50,121,-181,-97
1772819486.1735852,2,-49,17,116,-111,24,156,-51,-30,15,100,-3,-103,22,-19,-10,-32,-1,-64,4,165,4,78,3,53,-52,-40,-67,35,113,-181,-94
1772819486.1755383,2,-43,22,116,-111,23,155,-52,-29,13,102,-5,-102,20,-22,-11,-32,-1,-63,2,166,7,81,2,55,-49,-34,-64,20,105,-180,-91
1772819486.1774914,0,-42,19,108,-111,26,153,-55,-30,11,99,-7,-100,17,-21,-9,-31,0,-63,2,166,8,83,0,61,-48,-33,-62,25,102,-179,-90
1772819486.1794446,-2,-39,16,100,-110,16,154,-57,-31,9,92,-7,-99,16,-17,-6,-28,3,-60,4,167,8,84,-1,63,-47,-32,-62,32,101,-179,-89
1772819486.1813977,-4,-41,11,102,-108,-1,159,-56,-30,6,86,-9,-96,12,-23,-8,-23,8,-57,6,170,12,88,-6,66,-44,-29,-64,33,101,-177,-86
1772819486.1833508,-7,-46,3,110,-105,0,159,-50,-28,6,89,-8,-95,11,-27,-13,-27,7,-55,3,170,14,90,-13,70,-41,-24,-64,28,101,-173,-83
1772819486.185304,-11,-44,8,103,-108,12,156,-50,-27,8,95,-6,-94,13,-24,-11,-28,7,-57,3,168,12,87,-11,69,-42,-22,-69,19,101,-174,-84
1772819486.187257,-7,-39,24,97,-114,27,162,-59,-30,9,93,-8,-96,9,-27,-10,-24,8,-58,5,169,9,84,-5,60,-46,-30,-69,29,103,-177,-88
1772819486.1892102,1,-33,31,93,-116,25,163,-61,-32,8,90,-11,-98,8,-26,-8,-26,6,-60,3,167,7,85,2,59,-46,-34,-68,38,102,-178,-91
1772819486.1911633,5,-29,30,97,-111,24,159,-55,-31,10,91,-11,-99,7,-28,-13,-33,3,-62,-1,164,7,86,2,61,-44,-28,-64,30,98,-175,-89
1772819486.1931164,6,-27,28,99,-107,24,157,-55,-30,10,91,-11,-98,5,-29,-13,-33,2,-61,-4,164,7,87,3,65,-43,-23,-63,13,97,-174,-88
1772819486.1950696,5,-28,22,92,-108,16,152,-59,-31,5,89,-14,-98,3,-26,-6,-25,5,-58,-1,165,6,87,8,67,-44,-28,-56,29,99,-174,-92
1772819486.1970227,4,-35,22,90,-109,16,153,-59,-32,3,90,-16,-99,-1,-29,-6,-23,6,-58,5,167,5,84,11,63,-46,-37,-55,54,101,-174,-94
1772819486.1989758,9,-42,26,96,-109,22,158,-55,-31,6,95,-16,-101,-3,-34,-9,-26,6,-59,4,166,4,82,9,59,-48,-38,-61,59,101,-174,-95
1772819486.200929,12,-42,28,102,-110,24,158,-54,-32,6,95,-16,-101,-2,-34,-7,-23,8,-58,6,164,3,80,5,57,-50,-39,-62,53,99,-175,-97
1772819486.202882,9,-43,27,103,-112,22,157,-53,-31,8,94,-16,-100,-1,-32,-5,-19,13,-55,13,165,4,80,5,55,-52,-40,-64,48,97,-179,-98
1772819486.2048352,6,-46,23,97,-115,17,156,-54,-30,10,97,-15,-99,0,-31,-5,-19,14,-53,14,167,7,79,5,54,-51,-42,-70,59,103,-181,-98
1772819486.2067883,4,-42,21,95,-114,17,157,-54,-30,10,100,-13,-97,2,-31,-8,-25,11,-54,7,166,9,81,5,56,-49,-43,-71,55,109,-180,-96
1772819486.2087414,4,-38,23,92,-112,19,156,-57,-30,9,104,-12,-96,5,-30,-9,-26,11,-55,3,166,11,85,6,59,-45,-37,-66,28,102,-178,-92
1772819486.2106946,5,-41,25,88,-112,22,155,-62,-31,9,105,-12,-96,7,-27,-6,-22,12,-55,2,166,11,86,5,59,-45,-37,-65,24,97,-178,-91
1772819486.2126477,7,-50,21,84,-113,15,160,-65,-32,11,108,-8,-98,10,-20,0,-17,14,-55,4,166,10,85,3,56,-46,-41,-67,32,94,-179,-91
1772819486.2146008,12,-57,18,86,-111,12,165,-62,-31,15,109,-6,-98,12,-19,-4,-24,11,-56,2,165,10,85,2,56,-45,-42,-68,36,95,-179,-90
1772819486.216554,12,-61,20,95,-108,18,163,-56,-30,16,101,-7,-99,11,-25,-12,-33,7,-58,2,166,9,85,4,61,-44,-41,-67,38,96,-177,-89
1772819486.218507,4,-60,18,101,-107,19,158,-55,-29,13,95,-8,-100,11,-24,-9,-29,8,-58,5,167,8,84,6,63,-45,-40,-67,39,92,-175,-89
1772819486.2204602,-4,-45,20,102,-108,19,160,-54,-31,12,95,-8,-100,13,-23,-5,-25,7,-59,5,165,6,82,2,66,-46,-40,-69,37,90,-175,-90
1772819486.2224133,-13,-32,24,102,-107,20,170,-54,-32,12,97,-8,-101,12,-25,-10,-31,5,-62,1,160,5,82,0,71,-46,-40,-70,36,97,-174,-89
1772819486.2243664,-8,-33,26,102,-104,22,172,-55,-32,13,100,-7,-100,13,-27,-15,-36,2,-65,-4,156,4,81,-3,71,-45,-40,-68,37,104,-173,-88
1772819486.2263196,0,-39,26,101,-105,25,167,-57,-32,15,103,-5,-100,15,-23,-12,-34,2,-65,-4,155,4,80,-11,67,-45,-42,-66,38,105,-173,-88
1772819486.2282727,0,-51,25,102,-106,25,165,-58,-32,14,104,-3,-99,17,-20,-8,-30,5,-62,-2,157,6,81,-16,65,-45,-41,-68,37,101,-175,-88
1772819486.2302258,-3,-59,19,105,-107,24,164,-60,-31,12,105,-2,-98,18,-20,-5,-27,7,-59,1,159,8,83,-11,61,-46,-41,-73,41,99,-177,-89
1772819486.232179,-1,-54,16,108,-108,18,170,-59,-31,11,103,-3,-98,18,-24,-11,-32,6,-61,0,158,7,81,-3,58,-47,-40,-72,51,105,-177,-92
1772819486.234132,-2,-42,22,109,-110,13,175,-57,-31,14,104,-3,-98,19,-26,-14,-36,3,-62,-1,160,6,82,3,60,-49,-33,-70,28,106,-177,-94
1772819486.2360852,-4,-33,29,105,-111,19,165,-54,-30,18,102,-1,-98,21,-22,-9,-31,2,-62,-3,161,4,82,5,58,-50,-34,-66,14,98,-178,-95
1772819486.2380383,-5,-30,29,104,-109,22,155,-52,-28,19,103,1,-98,25,-20,-7,-31,2,-63,-7,160,4,82,0,53,-51,-39,-64,32,86,-177,-96
1772819486.2399914,-8,-38,29,106,-107,21,159,-52,-26,22,105,1,-98,27,-20,-8,-33,3,-62,-4,161,5,81,-6,53,-50,-40,-67,42,76,-176,-95
1772819486.2419446,-11,-47,26,111,-103,22,162,-53,-26,20,102,-1,-99,24,-25,-12,-35,0,-61,-1,163,6,82,-8,61,-47,-38,-69,39,87,-174,-94
1772819486.2438977,-8,-35,18,105,-103,21,162,-55,-28,15,96,-4,-100,20,-28,-15,-38,-1,-60,-2,165,6,84,-2,66,-46,-38,-68,33,106,-174,-92
1772819486.2458508,-2,-25,17,94,-104,18,162,-56,-28,14,96,-4,-99,19,-27,-15,-37,0,-59,-2,165,7,84,3,62,-47,-41,-71,31,114,-175,-91
1772819486.247804,3,-27,25,90,-106,16,160,-58,-27,13,96,-4,-98,19,-24,-13,-33,1,-59,-1,165,7,84,-2,58,-49,-41,-72,32,110,-175,-90
1772819486.249757,4,-33,27,89,-107,18,160,-57,-27,14,97,-4,-99,20,-22,-9,-29,2,-57,1,166,7,83,0,51,-50,-39,-68,27,106,-177,-91
1772819486.2517102,3,-44,22,89,-109,18,163,-54,-27,17,97,-4,-98,20,-21,-8,-29,4,-56,2,169,7,82,7,51,-50,-34,-63,11,105,-178,-91
1772819486.2536633,2,-50,18,93,-110,17,160,-55,-27,16,96,-4,-99,20,-19,-5,-25,6,-56,4,170,7,81,6,53,-50,-37,-63,18,104,-178,-91
1772819486.2556164,3,-56,17,100,-110,17,155,-58,-29,13,99,-6,-99,20,-19,-4,-23,7,-56,3,169,8,81,2,54,-51,-44,-64,38,104,-178,-90
1772819486.2575696,4,-57,19,104,-110,16,153,-60,-30,8,96,-9,-98,16,-21,-6,-25,7,-56,3,168,9,81,2,55,-50,-44,-63,48,104,-177,-89
1772819486.2595227,3,-48,18,99,-111,18,154,-63,-31,7,93,-11,-97,14,-20,-5,-24,7,-56,3,167,11,82,1,55,-48,-41,-66,49,104,-177,-88
1772819486.2614758,4,-40,20,97,-111,19,157,-65,-33,8,95,-12,-98,12,-19,-6,-25,5,-56,2,165,9,81,-2,53,-49,-41,-69,63,106,-179,-89
1772819486.263429,4,-41,22,97,-110,20,157,-67,-34,9,95,-14,-98,9,-21,-4,-23,6,-55,5,165,9,83,-5,55,-50,-42,-67,59,107,-179,-90
1772819486.265382,2,-52,19,98,-111,20,157,-66,-34,7,94,-15,-97,9,-20,-1,-18,10,-53,12,168,10,85,-4,62,-48,-31,-63,29,96,-178,-90
1772819486.2673352,-5,-62,17,103,-113,21,155,-64,-34,5,96,-15,-98,9,-19,2,-15,11,-52,15,169,11,85,0,66,-47,-25,-66,24,91,-176,-91
1772819486.2692883,-8,-68,18,111,-112,23,153,-62,-34,6,99,-15,-98,9,-22,0,-18,12,-53,14,169,10,84,5,65,-48,-25,-70,31,91,-175,-93
1772819486.2712414,0,-64,18,112,-110,24,148,-61,-34,6,98,-17,-98,6,-25,-1,-18,12,-53,15,171,9,83,9,61,-51,-27,-72,34,95,-177,-94
1772819486.2731946,2,-48,24,111,-108,27,146,-59,-34,5,93,-19,-99,1,-30,-4,-20,9,-54,12,172,9,83,11,57,-50,-29,-73,36,99,-175,-93
1772819486.2751477,-5,-31,29,107,-106,33,148,-59,-35,4,90,-20,-100,-1,-30,-7,-26,6,-56,8,172,10,84,5,59,-49,-29,-73,35,103,-173,-94
1772819486.2771008,-19,-26,28,105,-105,39,147,-60,-34,3,92,-21,-100,-1,-28,-4,-22,9,-53,13,174,10,85,-7,64,-49,-31,-75,32,102,-173,-94
1772819486.279054,-26,-30,21,107,-105,27,150,-59,-33,3,94,-20,-99,2,-25,1,-16,12,-50,18,175,11,85,-2,64,-51,-37,-78,29,99,-174,-94
1772819486.281007,-21,-34,16,104,-107,3,160,-59,-35,3,96,-18,-98,3,-21,9,-9,14,-49,20,176,9,83,5,61,-53,-40,-76,31,97,-175,-96
1772819486.2829602,-5,-37,21,102,-109,6,167,-57,-35,6,100,-16,-101,3,-22,6,-15,10,-53,15,172,6,80,7,58,-54,-38,-74,32,98,-176,-98
1772819486.2849133,4,-32,30,101,-111,21,168,-57,-36,8,102,-16,-105,2,-26,-2,-24,6,-58,11,170,2,78,10,61,-55,-35,-69,35,98,-177,-103
1772819486.2868664,2,-31,28,100,-118,31,176,-66,-39,9,104,-16,-107,5,-20,3,-25,4,-61,9,169,-1,78,11,66,-57,-32,-64,36,95,-179,-107
1772819486.2888196,1,-29,26,104,-118,29,173,-64,-39,12,106,-14,-108,6,-21,1,-27,1,-63,9,170,-2,78,10,70,-55,-25,-68,27,94,-179,-106
1772819486.2907727,3,-24,25,114,-111,29,162,-58,-37,15,110,-12,-108,5,-26,-7,-33,-3,-65,7,169,-1,77,7,67,-52,-29,-77,33,101,-177,-103
1772819486.2927258,6,-23,22,115,-107,28,161,-58,-36,14,110,-12,-106,6,-26,-10,-41,-7,-67,3,168,-1,75,6,59,-53,-41,-73,54,110,-176,-100
1772819486.294679,8,-25,22,114,-104,26,163,-62,-34,11,102,-14,-105,4,-33,-15,-42,-7,-66,2,170,1,78,12,59,-50,-38,-62,44,111,-173,-95
1772819486.296632,5,-31,23,112,-105,24,169,-66,-34,8,98,-14,-103,3,-37,-16,-37,-4,-65,5,172,4,81,9,64,-47,-30,-59,32,107,-172,-93
1772819486.2985852,0,-39,18,108,-105,20,177,-66,-32,14,109,-10,-101,6,-31,-10,-30,-2,-64,4,166,4,80,-12,64,-47,-29,-68,33,104,-172,-91
1772819486.3005383,0,-40,20,111,-104,25,180,-59,-31,20,120,-6,-102,8,-30,-10,-34,-5,-67,-5,161,2,78,-18,61,-48,-32,-73,35,103,-171,-90
1772819486.3024914,3,-40,23,115,-105,27,177,-54,-30,24,118,-6,-103,9,-31,-14,-42,-8,-69,-9,161,2,76,-4,62,-49,-31,-73,35,99,-172,-92
1772819486.3044446,5,-43,23,116,-106,27,174,-55,-31,23,105,-5,-103,10,-31,-16,-42,-8,-67,-7,164,2,78,6,66,-49,-28,-70,28,99,-172,-93
1772819486.3063977,-3,-41,27,114,-106,28,171,-59,-32,18,97,-5,-103,11,-30,-16,-41,-7,-65,-4,167,2,81,10,73,-49,-25,-63,13,100,-172,-94
1772819486.3083508,-3,-38,29,107,-108,27,171,-64,-35,15,101,-6,-103,11,-28,-18,-39,-7,-65,-1,166,1,81,8,70,-49,-30,-56,22,107,-173,-96
1772819486.310304,4,-31,28,102,-110,26,168,-66,-37,13,110,-7,-105,10,-26,-16,-37,-5,-65,2,167,1,79,2,59,-52,-39,-58,44,109,-176,-97
1772819486.312257,6,-31,27,96,-111,22,166,-69,-39,11,110,-8,-107,10,-25,-14,-37,-3,-64,3,169,2,81,-3,58,-51,-38,-63,70,106,-175,-97
1772819486.3142102,5,-32,27,93,-112,20,163,-71,-41,6,97,-11,-107,7,-28,-15,-36,-1,-63,5,170,3,82,3,62,-50,-37,-60,91,99,-173,-97
1772819486.3161633,5,-27,28,94,-111,20,159,-70,-40,4,94,-12,-106,5,-27,-13,-33,0,-62,9,170,4,82,9,64,-48,-34,-58,63,98,-170,-96
1772819486.3181164,4,-22,30,98,-111,20,156,-68,-39,4,98,-11,-105,6,-26,-12,-32,0,-61,9,168,3,81,9,63,-49,-29,-60,33,108,-170,-95
1772819486.3200696,3,-23,31,102,-112,19,157,-69,-39,7,103,-11,-104,8,-26,-12,-31,-1,-61,6,167,2,79,7,62,-51,-32,-63,29,118,-172,-96
1772819486.3220227,0,-37,25,104,-113,18,159,-70,-39,11,109,-9,-103,9,-24,-9,-28,0,-60,7,166,2,78,8,64,-51,-35,-63,32,117,-173,-95
1772819486.3239758,-1,-47,20,105,-113,18,161,-69,-38,11,108,-7,-103,10,-21,-3,-21,6,-58,10,166,3,77,7,63,-51,-40,-66,32,110,-174,-94
1772819486.325929,0,-39,22,98,-113,17,160,-68,-36,11,107,-7,-100,12,-16,3,-16,9,-58,12,165,2,75,2,58,-52,-44,-68,30,105,-176,-94
1772819486.327882,1,-27,26,97,-112,18,160,-66,-36,13,107,-7,-100,12,-17,-2,-23,5,-59,10,163,2,75,-1,58,-52,-44,-67,31,104,-175,-93
1772819486.3298352,0,-21,25,104,-110,22,159,-63,-35,14,109,-8,-102,9,-25,-12,-31,1,-61,10,165,3,76,2,62,-53,-43,-66,31,103,-174,-92
1772819486.3317883,2,-23,25,106,-108,26,159,-60,-34,15,114,-7,-102,8,-26,-15,-35,0,-63,9,164,2,75,1,64,-53,-42,-69,32,104,-174,-93
1772819486.3337414,2,-33,25,108,-109,26,160,-57,-34,16,117,-5,-102,11,-20,-10,-35,-1,-64,6,162,0,74,-3,66,-54,-42,-73,32,105,-175,-95
1772819486.3356946,3,-42,23,115,-108,24,156,-57,-36,13,111,-6,-102,11,-18,-7,-33,1,-63,4,163,1,75,-11,69,-51,-38,-73,33,107,-173,-94
1772819486.3376477,9,-40,29,117,-106,24,157,-58,-38,7,99,-11,-103,6,-25,-10,-32,2,-64,5,165,1,77,-14,67,-48,-32,-67,37,110,-170,-94
1772819486.3396008,3,-29,33,111,-107,24,159,-60,-39,6,99,-15,-103,3,-30,-11,-31,2,-64,6,165,1,77,-4,62,-47,-31,-62,39,108,-171,-94
1772819486.341554,-5,-19,27,98,-109,20,160,-64,-39,5,99,-18,-104,0,-33,-12,-29,2,-62,9,167,2,81,6,63,-45,-29,-55,42,108,-172,-92
1772819486.343507,-5,-23,20,87,-111,16,161,-70,-41,3,99,-20,-105,-2,-31,-10,-27,4,-61,10,171,3,85,11,70,-43,-26,-52,44,109,-172,-91
1772819486.3454602,1,-32,21,87,-111,13,163,-74,-43,2,99,-20,-107,-4,-29,-9,-24,5,-61,11,172,4,87,11,73,-42,-24,-55,42,108,-172,-91
1772819486.3474133,7,-35,22,92,-110,13,158,-73,-42,2,96,-20,-108,-4,-29,-8,-22,4,-61,11,171,4,86,12,75,-42,-23,-65,41,107,-171,-90
1772819486.3493664,10,-33,21,95,-110,15,153,-72,-42,1,94,-20,-109,-5,-28,-6,-20,3,-60,12,170,3,84,11,76,-42,-24,-66,41,108,-170,-91
1772819486.3513196,5,-26,22,97,-112,15,151,-72,-43,0,96,-20,-108,-4,-28,-4,-19,4,-60,13,170,2,82,7,76,-44,-27,-61,42,109,-172,-92
1772819486.3532727,2,-22,27,101,-114,16,152,-71,-44,1,100,-20,-107,-1,-29,-6,-23,5,-61,12,169,0,79,4,75,-48,-27,-59,45,111,-174,-94
1772819486.3552258,5,-26,31,103,-115,17,154,-72,-43,3,105,-17,-106,2,-26,-3,-21,7,-59,14,169,0,76,2,65,-52,-28,-68,40,112,-176,-95
1772819486.357179,6,-24,31,97,-115,16,158,-74,-41,5,106,-17,-104,3,-25,-2,-18,9,-56,16,172,3,77,5,60,-53,-31,-67,26,107,-177,-94
1772819486.359132,2,-23,30,90,-114,16,160,-74,-40,4,104,-17,-103,2,-28,-6,-21,9,-56,14,175,5,81,15,66,-52,-32,-61,25,101,-177,-93
1772819486.3610852,-7,-24,28,82,-115,18,166,-74,-41,3,102,-18,-103,0,-27,-3,-16,11,-55,17,175,6,81,20,70,-54,-36,-61,32,98,-180,-95
1772819486.3630383,-14,-25,29,80,-115,20,169,-75,-40,5,103,-16,-102,2,-24,-1,-15,12,-55,20,171,5,80,12,70,-56,-40,-59,37,99,-182,-96
1772819486.3649914,-10,-25,29,79,-114,20,168,-71,-38,9,111,-13,-102,6,-19,-1,-20,10,-57,17,167,2,79,5,69,-57,-41,-62,36,102,-183,-97
1772819486.3669446,-3,-25,26,77,-115,16,171,-67,-38,11,116,-12,-104,7,-19,-2,-22,8,-59,12,167,1,80,5,72,-55,-38,-70,33,103,-182,-97
1772819486.3688977,-4,-20,26,83,-112,20,170,-63,-37,10,112,-12,-104,5,-25,-5,-22,9,-58,13,169,2,81,5,70,-52,-33,-76,19,104,-179,-96
1772819486.3708508,-5,-17,26,94,-108,26,165,-57,-34,12,110,-11,-103,4,-27,-8,-26,6,-59,11,168,2,81,4,61,-50,-32,-73,4,105,-176,-94
1772819486.372804,-12,-24,28,97,-107,26,164,-56,-33,12,108,-11,-103,4,-26,-9,-29,5,-61,9,167,3,80,1,57,-49,-36,-68,19,108,-174,-92
1772819486.374757,-20,-35,31,93,-107,22,164,-58,-33,11,109,-10,-103,5,-25,-6,-27,7,-61,11,166,4,81,-4,58,-48,-41,-68,43,108,-174,-91
1772819486.3767102,-20,-43,31,88,-108,19,162,-60,-34,10,107,-9,-103,7,-24,-5,-25,7,-60,12,167,5,82,-5,58,-47,-43,-72,59,109,-175,-89
1772819486.3786633,-14,-45,27,87,-108,21,163,-61,-33,10,104,-10,-103,7,-27,-9,-28,5,-60,9,166,6,82,-8,57,-46,-45,-73,72,113,-174,-86
1772819486.3806164,-8,-42,23,87,-107,28,164,-61,-33,11,103,-9,-103,7,-28,-8,-29,6,-61,9,166,6,83,-4,62,-44,-42,-67,46,106,-174,-85
1772819486.3825696,-9,-37,17,88,-105,28,164,-57,-33,12,103,-7,-103,8,-29,-8,-26,7,-61,13,168,6,82,5,65,-45,-35,-64,22,93,-176,-86
1772819486.3845227,-13,-51,12,99,-105,10,163,-52,-32,15,105,-6,-101,11,-25,-3,-19,11,-60,16,168,5,80,6,67,-48,-35,-68,32,84,-177,-88
1772819486.3864758,-12,-67,10,104,-106,4,164,-48,-32,19,117,-2,-101,17,-19,1,-19,13,-62,12,165,4,78,3,71,-51,-35,-72,42,71,-179,-90
1772819486.388429,-6,-64,15,95,-108,10,169,-50,-31,22,128,2,-101,20,-20,-6,-28,10,-64,7,164,3,79,4,72,-54,-38,-72,38,80,-181,-92
1772819486.390382,2,-55,17,84,-115,28,163,-60,-34,18,123,0,-102,17,-21,-6,-26,10,-63,10,165,4,80,4,69,-57,-42,-71,31,103,-184,-95
1772819486.3923352,6,-49,18,80,-119,35,155,-68,-36,10,112,-4,-101,14,-20,-4,-21,13,-60,15,168,7,83,-1,70,-55,-44,-70,27,118,-185,-94
1772819486.3942883,5,-49,23,81,-118,27,151,-68,-36,8,106,-5,-100,12,-22,-7,-22,14,-58,15,171,9,86,-4,72,-53,-44,-67,28,119,-183,-91
1772819486.3962414,2,-46,22,81,-117,21,152,-65,-36,9,108,-5,-99,12,-23,-7,-21,14,-58,14,170,10,85,1,65,-53,-45,-66,28,114,-182,-89
1772819486.3981946,-2,-46,19,81,-116,19,156,-65,-36,10,111,-5,-97,12,-23,-6,-21,14,-57,13,169,10,83,5,62,-53,-43,-67,29,110,-181,-88
1772819486.4001477,-5,-47,17,85,-116,18,159,-65,-36,10,113,-6,-98,11,-23,-5,-21,13,-58,14,170,9,83,9,64,-53,-41,-68,30,106,-182,-88
1772819486.4021008,-4,-50,17,90,-116,17,159,-65,-36,9,112,-5,-100,10,-21,-3,-20,13,-59,14,170,8,82,11,64,-53,-39,-68,28,104,-182,-89
1772819486.404054,-2,-46,23,98,-112,21,157,-61,-35,10,110,-5,-101,12,-21,-6,-23,11,-61,11,167,6,80,6,62,-54,-38,-70,27,105,-180,-89
1772819486.406007,-3,-41,25,101,-110,23,157,-56,-33,10,110,-5,-101,13,-22,-6,-20,12,-60,13,166,7,78,2,58,-54,-34,-80,16,100,-179,-88
1772819486.4079602,-2,-41,22,99,-109,22,155,-56,-33,9,110,-6,-100,14,-20,-2,-14,16,-58,16,166,7,78,2,53,-54,-38,-81,15,98,-180,-88
1772819486.4099133,-4,-37,23,99,-107,26,152,-59,-33,7,109,-7,-100,13,-21,-5,-19,15,-59,14,165,5,79,5,50,-53,-47,-74,27,102,-179,-87
1772819486.4118664,-5,-34,24,97,-105,28,153,-61,-35,6,111,-8,-100,11,-23,-8,-26,11,-61,6,163,6,80,9,56,-53,-49,-69,36,105,-178,-87
1772819486.4138196,-5,-32,23,96,-105,28,152,-63,-36,6,115,-8,-100,9,-23,-8,-26,8,-63,3,160,5,80,3,59,-53,-48,-69,48,107,-177,-88
1772819486.4157727,-6,-29,24,96,-107,29,154,-61,-35,8,117,-9,-101,8,-22,-6,-24,7,-63,5,159,4,77,-8,57,-55,-50,-69,60,109,-178,-89
1772819486.4177258,-8,-32,25,100,-109,27,161,-58,-34,9,115,-9,-101,8,-22,-5,-21,9,-61,10,162,4,77,-11,59,-56,-47,-68,41,101,-178,-90
1772819486.419679,-5,-38,25,107,-108,26,162,-57,-33,8,106,-11,-100,6,-24,-5,-23,10,-60,10,166,5,79,-1,61,-55,-40,-65,23,96,-176,-90
1772819486.421632,-1,-43,20,110,-108,27,157,-57,-32,7,100,-10,-100,8,-20,-4,-25,7,-61,3,167,6,80,10,61,-55,-40,-65,26,97,-175,-89
1772819486.4235852,1,-48,17,111,-107,25,150,-58,-32,4,98,-12,-100,7,-24,-4,-25,6,-62,2,167,8,84,14,65,-51,-38,-65,32,98,-174,-86
1772819486.4255383,-1,-50,18,106,-106,18,149,-62,-32,2,95,-14,-100,4,-29,-5,-24,6,-62,6,167,10,88,11,69,-46,-36,-64,37,101,-172,-84
1772819486.4274914,-6,-54,15,102,-105,15,150,-64,-32,1,94,-13,-100,3,-28,-4,-23,6,-62,6,166,11,89,7,71,-42,-32,-64,41,104,-170,-82
1772819486.4294446,-7,-53,7,103,-104,17,153,-63,-32,2,95,-14,-100,2,-31,-9,-26,5,-62,2,166,11,90,5,74,-40,-28,-63,45,104,-169,-80
1772819486.4313977,-6,-51,-3,102,-104,19,157,-62,-33,0,94,-14,-100,2,-34,-12,-27,5,-62,1,166,11,91,7,78,-38,-27,-61,46,105,-169,-80
1772819486.4333508,-2,-43,3,105,-105,19,155,-60,-34,-1,92,-16,-101,0,-38,-16,-30,2,-62,0,167,10,89,10,81,-39,-26,-61,45,107,-169,-82
1772819486.435304,-2,-38,19,111,-106,23,149,-59,-35,1,91,-17,-101,-2,-39,-15,-32,1,-63,-2,165,8,86,10,82,-43,-28,-61,42,111,-171,-86
1772819486.437257,-12,-37,25,112,-109,26,150,-59,-38,3,93,-17,-101,0,-35,-11,-30,3,-62,-1,165,6,83,6,84,-47,-33,-58,43,116,-174,-91
1772819486.4392102,-16,-40,27,109,-111,27,157,-62,-39,2,92,-16,-101,1,-34,-8,-25,7,-59,2,167,5,81,7,82,-51,-37,-52,44,117,-178,-93
1772819486.4411633,-14,-47,27,113,-113,27,163,-66,-38,2,91,-14,-99,4,-32,-5,-21,12,-56,5,169,6,80,8,76,-56,-42,-56,41,111,-183,-95
1772819486.4431164,-6,-48,26,115,-113,28,165,-68,-39,2,92,-14,-97,6,-31,-4,-20,13,-55,10,171,8,80,9,67,-59,-43,-64,39,110,-184,-94
1772819486.4450696,1,-45,26,108,-114,28,164,-71,-41,1,94,-13,-97,8,-30,-3,-19,13,-54,14,172,8,80,8,61,-61,-44,-64,38,111,-186,-95
1772819486.4470227,2,-46,25,104,-116,24,163,-72,-42,2,100,-11,-96,11,-27,-2,-19,13,-54,16,172,7,78,7,61,-63,-43,-62,38,111,-186,-96
1772819486.4489758,3,-47,23,104,-118,21,169,-72,-42,3,104,-8,-95,14,-25,-1,-18,15,-55,16,171,6,76,7,61,-65,-43,-64,36,109,-187,-98
1772819486.450929,7,-46,21,106,-119,19,172,-70,-41,5,106,-6,-96,17,-22,1,-18,15,-58,10,167,4,76,4,62,-65,-41,-66,36,107,-188,-99
1772819486.452882,5,-46,21,106,-118,22,165,-66,-39,8,111,-3,-97,19,-18,2,-20,13,-60,4,164,3,74,2,62,-65,-38,-68,36,106,-188,-98
1772819486.4548352,3,-42,22,108,-117,23,157,-64,-39,7,106,-5,-98,15,-22,1,-15,13,-61,9,165,2,74,2,62,-61,-36,-68,37,108,-186,-99
1772819486.4567883,5,-39,21,107,-117,20,155,-66,-41,6,101,-7,-101,10,-28,-3,-15,11,-61,11,165,1,75,3,63,-57,-34,-66,49,116,-184,-98
1772819486.4587414,12,-37,23,106,-116,20,157,-65,-42,9,103,-6,-103,10,-27,-7,-26,4,-67,2,159,-1,74,-1,63,-58,-35,-64,68,126,-182,-98
1772819486.4606946,21,-30,26,106,-113,21,160,-64,-41,9,100,-7,-104,9,-26,-9,-32,0,-70,-5,157,-2,75,-9,65,-56,-33,-60,55,130,-178,-95
1772819486.4626477,24,-27,25,105,-112,20,162,-67,-40,6,93,-10,-103,6,-33,-14,-33,1,-70,-3,160,-1,78,-5,71,-52,-24,-55,37,129,-175,-92
1772819486.4646008,25,-24,27,111,-113,20,164,-68,-39,7,91,-11,-104,3,-38,-21,-40,-1,-72,-6,159,-1,77,1,71,-52,-24,-53,42,133,-173,-92
1772819486.466554,30,-22,28,118,-115,18,161,-66,-40,7,93,-10,-104,5,-36,-22,-44,-4,-73,-10,156,-2,74,-3,69,-56,-25,-50,50,140,-174,-94
1772819486.468507,39,-23,23,119,-119,16,154,-62,-40,4,94,-9,-104,7,-34,-20,-40,-2,-72,-10,155,-3,71,-4,63,-58,-27,-47,55,148,-177,-97
1772819486.4704602,48,-23,19,116,-122,16,150,-61,-41,2,94,-10,-104,9,-33,-17,-37,0,-72,-8,155,-5,70,-4,62,-60,-30,-46,58,154,-179,-100
1772819486.4724133,60,-19,20,114,-123,15,146,-62,-43,-2,91,-13,-106,5,-36,-19,-40,-2,-73,-10,155,-6,70,-2,65,-61,-30,-42,64,163,-180,-101
1772819486.4743664,70,-19,17,108,-125,10,141,-66,-46,-5,89,-15,-109,2,-39,-21,-40,-4,-72,-10,155,-5,71,-2,67,-59,-26,-37,73,175,-178,-101
1772819486.4763196,80,-19,13,107,-125,7,138,-70,-49,-8,87,-17,-112,2,-37,-19,-41,-6,-72,-12,154,-7,70,-4,66,-57,-23,-33,81,188,-176,-101
1772819486.4782727,93,-22,13,115,-123,7,134,-73,-53,-12,82,-21,-116,-3,-41,-21,-43,-9,-75,-14,152,-8,69,-7,65,-55,-19,-30,89,201,-172,-101
1772819486.4802258,101,-25,12,124,-121,3,131,-75,-56,-14,79,-27,-121,-10,-49,-29,-45,-12,-78,-17,150,-9,70,-8,73,-50,-12,-24,96,212,-167,-101
1772819486.482179,114,-16,13,125,-120,-1,129,-75,-59,-15,75,-32,-126,-16,-54,-35,-53,-18,-83,-23,146,-12,69,-11,76,-47,-4,-20,106,227,-162,-101
1772819486.484132,126,-2,17,127,-120,-1,129,-73,-64,-18,71,-37,-130,-21,-58,-40,-60,-24,-88,-28,142,-16,67,-13,76,-47,1,-15,117,244,-158,-104
1772819486.4860852,140,9,23,130,-122,0,129,-76,-70,-25,65,-44,-135,-27,-61,-39,-59,-26,-90,-31,139,-21,65,-13,79,-50,3,-7,125,257,-159,-109
1772819486.4880383,160,21,32,135,-123,6,131,-81,-75,-29,59,-51,-139,-35,-68,-46,-60,-28,-93,-32,136,-23,64,-17,79,-53,2,-2,131,270,-158,-113
1772819486.4899914,175,27,33,138,-124,6,133,-87,-79,-33,56,-55,-141,-41,-73,-50,-60,-28,-94,-30,136,-23,64,-28,82,-55,0,3,138,281,-156,-115
1772819486.4919446,181,28,30,141,-123,3,133,-90,-79,-35,56,-55,-141,-41,-72,-52,-64,-29,-94,-33,137,-23,64,-28,81,-55,-2,4,140,287,-156,-114
1772819486.4938977,191,34,32,147,-121,8,130,-92,-78,-32,60,-55,-142,-41,-72,-59,-77,-36,-97,-42,135,-24,62,-28,78,-55,-3,6,144,295,-155,-113
1772819486.4958508,199,40,29,153,-120,8,125,-94,-79,-32,58,-56,-146,-43,-76,-63,-86,-40,-100,-45,135,-25,60,-28,78,-54,-2,11,151,307,-154,-112
1772819486.497804,206,42,27,156,-120,9,123,-98,-80,-36,50,-61,-149,-48,-86,-67,-86,-40,-101,-44,137,-26,61,-20,78,-57,-1,17,165,319,-154,-113
1772819486.499757,214,46,29,155,-122,9,119,-97,-81,-38,49,-61,-150,-50,-89,-68,-85,-40,-104,-45,137,-29,59,-19,76,-61,-4,17,177,327,-156,-116
1772819486.5017102,222,50,32,154,-123,-11,114,-92,-79,-37,50,-59,-149,-48,-86,-65,-81,-40,-103,-43,139,-30,59,-17,80,-60,-1,13,155,329,-155,-117
1772819486.5036633,227,44,31,158,-121,-20,112,-86,-77,-37,50,-57,-148,-49,-84,-63,-78,-40,-103,-40,138,-30,59,-22,84,-57,8,11,127,331,-153,-115
1772819486.5056164,231,38,33,155,-122,-15,111,-86,-77,-37,51,-56,-149,-48,-82,-62,-76,-39,-105,-39,135,-30,58,-29,82,-57,10,11,129,335,-152,-116
1772819486.5075696,240,41,38,152,-123,4,112,-91,-79,-38,47,-57,-151,-51,-87,-69,-81,-45,-110,-46,129,-33,56,-31,80,-55,5,15,158,339,-151,-116
1772819486.5095227,252,40,35,153,-123,15,111,-97,-82,-41,40,-61,-153,-58,-95,-75,-85,-49,-114,-50,127,-34,56,-31,84,-50,7,20,178,345,-146,-115
1772819486.5114758,256,31,35,155,-120,7,106,-97,-83,-44,37,-64,-155,-61,-98,-75,-84,-50,-115,-51,124,-34,56,-30,85,-46,18,23,177,351,-141,-113
1772819486.513429,250,30,33,157,-118,1,101,-97,-82,-45,37,-65,-156,-59,-96,-73,-83,-49,-114,-51,123,-34,55,-30,82,-45,20,25,177,357,-138,-112
1772819486.515382,240,38,32,161,-116,4,100,-92,-80,-43,39,-64,-156,-56,-96,-75,-88,-52,-114,-53,120,-35,53,-33,80,-46,14,25,185,358,-137,-112
1772819486.5173352,237,49,37,165,-116,5,100,-87,-79,-40,43,-62,-157,-55,-98,-77,-92,-54,-116,-56,117,-38,50,-36,81,-50,15,25,193,352,-139,-113
1772819486.5192883,240,52,42,163,-118,5,101,-85,-80,-42,42,-62,-157,-54,-98,-75,-91,-55,-117,-56,116,-40,48,-34,85,-54,20,25,196,339,-142,-116
1772819486.5212414,247,53,42,159,-120,4,103,-87,-79,-42,40,-61,-157,-53,-95,-72,-87,-52,-116,-54,116,-41,48,-33,91,-57,18,25,186,338,-146,-118
1772819486.5231946,252,59,33,155,-122,3,108,-88,-79,-41,41,-59,-156,-50,-89,-69,-81,-50,-115,-54,115,-42,46,-40,89,-59,10,24,177,351,-150,-120
1772819486.5251477,250,61,29,147,-123,0,113,-89,-80,-41,45,-58,-155,-48,-90,-71,-82,-51,-115,-54,116,-42,44,-40,80,-61,6,28,184,369,-151,-120
1772819486.5271008,245,49,31,145,-124,-2,115,-92,-81,-41,46,-58,-155,-47,-93,-72,-84,-52,-114,-54,117,-40,45,-37,73,-62,3,29,204,379,-152,-119
1772819486.529054,248,33,33,149,-122,0,121,-93,-80,-43,39,-59,-153,-47,-91,-68,-82,-50,-110,-53,120,-37,48,-32,73,-62,2,21,190,372,-150,-117
1772819486.531007,259,25,29,152,-120,-3,118,-93,-80,-45,34,-60,-149,-45,-90,-66,-80,-45,-107,-51,122,-34,50,-31,77,-58,9,18,163,361,-147,-116
1772819486.5329602,258,27,30,151,-119,-4,109,-93,-79,-44,37,-58,-147,-42,-88,-66,-81,-44,-107,-51,124,-33,52,-37,72,-56,10,17,165,358,-146,-116
1772819486.5349133,249,33,35,148,-118,-1,105,-91,-80,-44,34,-59,-150,-45,-90,-68,-82,-46,-108,-51,124,-33,53,-39,71,-56,10,20,177,357,-144,-114
1772819486.5368664,255,41,35,141,-120,1,102,-93,-83,-45,30,-62,-153,-47,-92,-70,-84,-48,-110,-51,124,-35,53,-35,77,-55,13,27,186,358,-143,-115
1772819486.5388196,266,50,37,139,-121,2,102,-98,-86,-46,33,-64,-154,-47,-92,-72,-87,-51,-112,-54,121,-38,52,-36,79,-55,12,29,187,364,-143,-117
1772819486.5407727,271,55,38,140,-123,0,104,-100,-89,-47,40,-64,-155,-46,-87,-67,-84,-50,-114,-55,118,-40,50,-40,77,-56,9,27,183,369,-143,-119
1772819486.5427258,273,48,37,140,-125,-2,106,-103,-90,-47,44,-63,-155,-45,-82,-60,-79,-48,-115,-54,117,-40,48,-43,75,-57,8,22,181,373,-144,-121
1772819486.544679,279,46,36,140,-123,-3,111,-105,-88,-47,44,-63,-157,-46,-84,-65,-85,-53,-117,-60,117,-39,50,-39,77,-56,12,23,184,376,-144,-120
1772819486.546632,278,54,41,146,-121,2,113,-103,-87,-46,43,-64,-157,-49,-93,-74,-93,-57,-119,-61,115,-38,53,-46,83,-55,14,26,186,373,-144,-119
1772819486.5485852,267,61,47,152,-123,8,105,-100,-87,-44,46,-62,-156,-48,-90,-72,-89,-56,-119,-58,114,-39,51,-54,84,-58,11,25,182,367,-147,-120
1772819486.5505383,258,63,47,152,-126,9,105,-98,-86,-41,49,-60,-155,-47,-84,-66,-87,-54,-119,-59,114,-41,46,-42,79,-62,7,21,184,366,-150,-123
1772819486.5524914,253,63,45,151,-127,7,113,-95,-85,-38,50,-61,-155,-50,-92,-71,-90,-55,-120,-60,115,-41,46,-32,75,-63,4,24,195,366,-150,-124
1772819486.5544446,251,61,48,149,-125,9,115,-90,-83,-36,51,-61,-155,-50,-96,-74,-89,-55,-119,-59,116,-40,47,-33,77,-62,3,27,181,361,-150,-121
1772819486.5563977,250,46,46,150,-123,11,115,-88,-79,-33,52,-57,-153,-47,-90,-68,-84,-52,-116,-57,116,-37,50,-36,80,-60,8,17,159,350,-151,-118
1772819486.5583508,246,28,38,160,-119,11,121,-84,-75,-31,48,-55,-151,-46,-89,-70,-90,-54,-115,-59,117,-33,52,-36,79,-55,9,8,157,346,-147,-114
1772819486.560304,231,34,35,160,-115,10,123,-84,-73,-30,45,-55,-150,-46,-91,-74,-97,-57,-114,-60,121,-30,56,-32,81,-49,18,8,142,345,-143,-109
1772819486.562257,214,45,30,149,-114,10,122,-85,-73,-30,46,-55,-150,-45,-87,-69,-91,-55,-112,-57,122,-28,59,-31,82,-46,23,8,123,342,-142,-106
1772819486.5642102,212,45,37,146,-114,13,121,-84,-74,-31,45,-55,-151,-46,-88,-67,-89,-55,-112,-57,120,-29,56,-28,76,-51,8,11,150,342,-143,-106
1772819486.5661633,221,44,47,146,-115,15,121,-81,-75,-33,44,-57,-153,-48,-93,-70,-90,-54,-111,-56,120,-30,54,-28,68,-55,-3,12,173,339,-145,-107
1772819486.5681164,227,45,50,149,-116,18,120,-79,-73,-32,46,-58,-151,-48,-94,-71,-90,-50,-110,-54,121,-31,52,-33,65,-58,-3,10,174,327,-146,-108
1772819486.5700696,234,49,46,150,-117,13,119,-78,-73,-32,45,-58,-150,-50,-95,-71,-90,-49,-107,-51,125,-30,52,-32,71,-60,-1,10,168,318,-146,-110
1772819486.5720227,232,54,48,151,-120,12,118,-82,-73,-34,44,-59,-148,-48,-93,-69,-87,-48,-105,-47,129,-30,52,-29,69,-63,-4,10,163,315,-149,-111
1772819486.5739758,230,48,54,150,-121,20,122,-87,-73,-30,51,-57,-147,-45,-91,-69,-89,-46,-104,-46,129,-29,52,-28,60,-66,-8,8,161,315,-152,-112
1772819486.575929,222,38,54,143,-122,18,124,-90,-71,-27,59,-53,-145,-43,-86,-66,-89,-42,-103,-44,131,-27,53,-26,58,-68,-9,4,166,306,-155,-112
1772819486.577882,211,28,51,135,-124,15,124,-93,-71,-25,62,-51,-142,-41,-81,-58,-82,-37,-99,-39,136,-25,55,-23,61,-67,-8,0,168,289,-156,-112
1772819486.5798352,207,23,49,132,-124,13,127,-93,-72,-22,63,-48,-141,-37,-79,-56,-78,-35,-97,-34,136,-24,57,-19,60,-69,-11,-3,158,289,-159,-113
1772819486.5817883,208,24,47,132,-124,14,130,-91,-72,-22,63,-47,-142,-36,-80,-59,-80,-37,-99,-36,135,-25,57,-19,62,-69,-11,-4,148,302,-159,-113
1772819486.5837414,207,27,45,131,-124,14,132,-88,-73,-24,63,-47,-144,-37,-81,-59,-79,-37,-99,-38,133,-28,55,-21,66,-66,-8,-3,145,313,-158,-114
1772819486.5856946,206,26,37,129,-125,13,135,-88,-74,-25,62,-47,-146,-37,-81,-56,-75,-35,-100,-38,132,-30,53,-22,65,-67,-8,-4,157,315,-159,-116
1772819486.5876477,205,23,35,131,-125,9,130,-88,-73,-25,58,-45,-144,-34,-80,-57,-76,-35,-101,-40,131,-30,54,-19,70,-65,-8,-2,160,312,-157,-114
1772819486.5896008,201,20,36,135,-122,10,124,-88,-72,-26,53,-44,-141,-30,-75,-54,-72,-33,-100,-39,129,-29,56,-20,76,-59,1,-2,131,300,-154,-112
1772819486.591554,193,20,34,136,-120,13,129,-88,-72,-26,58,-42,-141,-26,-69,-48,-70,-34,-102,-43,126,-29,55,-22,78,-56,8,-9,121,291,-154,-110
1772819486.593507,186,21,33,135,-118,16,129,-90,-71,-25,63,-40,-139,-25,-69,-45,-68,-33,-101,-44,124,-28,55,-24,74,-56,6,-15,126,287,-155,-108
1772819486.5954602,177,13,34,137,-116,21,128,-89,-69,-25,59,-40,-135,-27,-73,-46,-64,-29,-99,-41,125,-26,57,-30,66,-55,4,-10,134,282,-155,-106
1772819486.5974133,173,1,44,142,-115,15,138,-85,-66,-24,59,-40,-133,-27,-79,-53,-69,-29,-99,-42,124,-25,56,-32,65,-55,1,-6,137,280,-153,-104
1772819486.5993664,166,-9,47,145,-115,0,142,-79,-64,-20,65,-37,-131,-25,-76,-51,-67,-27,-97,-39,126,-24,56,-38,69,-57,-4,-9,135,277,-155,-103
1772819486.6013196,161,-12,41,143,-118,-3,138,-76,-63,-18,70,-33,-128,-21,-68,-44,-58,-23,-95,-36,129,-24,55,-44,67,-60,-7,-12,130,273,-159,-105
1772819486.6032727,167,-4,36,139,-123,6,136,-79,-65,-19,71,-32,-127,-18,-64,-42,-56,-23,-95,-36,130,-25,54,-34,62,-64,-9,-15,126,272,-162,-107
1772819486.6052258,165,9,37,137,-129,25,135,-88,-67,-21,73,-33,-127,-16,-61,-41,-59,-24,-96,-37,129,-25,55,-31,64,-66,-9,-19,125,269,-164,-109
1772819486.607179,161,16,44,132,-130,26,132,-89,-67,-20,78,-32,-126,-14,-58,-40,-60,-25,-96,-38,127,-25,53,-31,63,-67,-9,-22,126,265,-165,-110
1772819486.609132,160,15,47,128,-127,18,136,-87,-66,-20,79,-31,-126,-16,-60,-44,-64,-26,-97,-39,126,-25,53,-26,61,-66,-11,-21,136,266,-164,-110
1772819486.6110852,160,3,41,131,-125,12,138,-89,-67,-21,79,-32,-127,-16,-58,-40,-63,-26,-97,-36,127,-25,53,-20,59,-66,-14,-19,142,269,-164,-110
1772819486.6130383,161,-3,38,139,-121,11,134,-89,-66,-21,81,-31,-126,-13,-54,-36,-60,-26,-96,-35,128,-24,53,-19,61,-64,-12,-20,119,262,-162,-108
1772819486.6149914,158,-1,40,145,-119,15,131,-87,-62,-18,82,-30,-123,-12,-56,-38,-60,-28,-95,-34,128,-23,54,-24,63,-62,-7,-26,104,253,-161,-107
1772819486.6169446,155,7,41,149,-118,20,132,-82,-61,-16,82,-31,-123,-12,-56,-37,-60,-29,-94,-33,127,-23,53,-29,60,-62,-8,-39,104,251,-161,-106
1772819486.6188977,152,5,42,160,-115,23,135,-77,-60,-15,79,-32,-125,-15,-61,-40,-63,-28,-93,-32,128,-23,51,-28,55,-63,-12,-40,107,253,-161,-106
1772819486.6208508,148,5,42,161,-116,20,138,-76,-61,-16,75,-34,-126,-19,-65,-41,-63,-27,-93,-31,129,-23,52,-23,61,-64,-13,-33,111,252,-161,-107
1772819486.622804,146,9,42,150,-119,19,139,-80,-62,-16,76,-33,-127,-20,-63,-39,-59,-25,-92,-29,130,-23,53,-20,65,-66,-15,-27,110,248,-165,-107
1772819486.624757,146,7,40,145,-121,17,138,-82,-62,-16,78,-31,-127,-18,-57,-32,-51,-23,-91,-24,132,-23,52,-20,61,-68,-19,-29,107,244,-169,-107
1772819486.6267102,147,8,41,143,-121,19,140,-82,-62,-17,78,-30,-126,-17,-55,-32,-50,-21,-90,-23,134,-20,54,-20,57,-67,-17,-34,99,243,-171,-105
1772819486.6286633,150,14,44,144,-121,23,141,-82,-60,-17,78,-32,-124,-19,-60,-40,-59,-24,-90,-25,135,-18,57,-19,58,-63,-13,-37,89,242,-170,-101
1772819486.6306164,152,21,42,143,-123,22,137,-84,-60,-19,78,-33,-124,-20,-58,-36,-57,-24,-88,-25,136,-17,58,-19,58,-64,-17,-36,92,237,-171,-102
1772819486.6325696,145,19,41,146,-123,16,137,-83,-58,-18,80,-32,-125,-19,-56,-32,-52,-21,-87,-22,138,-16,58,-22,57,-64,-14,-34,83,230,-171,-102
1772819486.6345227,138,12,46,154,-121,19,139,-79,-56,-18,82,-32,-126,-22,-61,-38,-57,-23,-88,-23,138,-15,58,-21,57,-62,-6,-35,82,228,-169,-101
1772819486.6364758,134,1,46,157,-121,21,139,-77,-58,-18,83,-32,-127,-23,-61,-40,-61,-27,-91,-28,140,-15,59,-14,61,-61,-9,-38,101,229,-168,-100
1772819486.638429,129,-4,46,154,-121,23,138,-78,-61,-22,77,-36,-128,-26,-64,-43,-64,-29,-92,-30,143,-15,64,-5,67,-56,-11,-37,117,231,-166,-98
1772819486.640382,124,-6,49,150,-119,25,139,-82,-63,-26,71,-39,-130,-30,-67,-47,-66,-30,-92,-27,144,-16,67,-4,71,-52,-9,-31,122,233,-162,-97
1772819486.6423352,119,-7,42,148,-117,23,139,-84,-65,-27,74,-41,-130,-29,-67,-48,-66,-31,-94,-26,143,-16,69,-8,71,-48,-7,-25,127,235,-158,-95
1772819486.6442883,127,-8,30,146,-115,20,134,-87,-65,-28,74,-42,-132,-31,-68,-48,-65,-32,-96,-26,143,-16,68,-12,67,-46,-7,-25,145,242,-156,-94
1772819486.6462414,142,-4,31,147,-114,20,130,-88,-64,-25,76,-41,-132,-31,-68,-47,-64,-32,-97,-26,143,-16,66,-14,63,-45,-7,-32,140,238,-155,-95
1772819486.6481946,142,6,41,150,-113,23,132,-84,-62,-21,77,-38,-131,-28,-66,-47,-67,-34,-99,-31,141,-17,65,-15,67,-43,1,-34,118,216,-153,-96
1772819486.6501477,131,13,51,154,-114,24,139,-79,-62,-19,74,-36,-131,-25,-67,-46,-68,-34,-100,-32,138,-19,62,-16,70,-45,1,-33,110,210,-155,-98
1772819486.6521008,124,14,52,159,-115,25,143,-76,-60,-16,76,-31,-129,-18,-64,-42,-65,-32,-100,-31,137,-19,57,-19,65,-52,-6,-39,103,218,-158,-100
1772819486.654054,125,12,50,161,-117,29,144,-73,-58,-15,79,-28,-126,-14,-62,-42,-65,-32,-100,-31,135,-20,54,-21,60,-58,-10,-40,98,229,-161,-102
1772819486.656007,125,12,44,159,-116,29,145,-72,-57,-15,82,-26,-121,-11,-58,-40,-63,-30,-99,-32,135,-18,52,-29,58,-61,-12,-40,96,228,-163,-101
1772819486.6579602,124,6,45,155,-116,29,144,-73,-55,-12,88,-24,-117,-8,-55,-38,-62,-29,-96,-33,134,-15,53,-39,60,-62,-15,-40,94,222,-165,-99
1772819486.6599133,120,3,44,152,-115,30,143,-73,-52,-10,88,-22,-114,-8,-60,-41,-63,-27,-93,-30,134,-13,54,-34,62,-62,-17,-42,92,217,-167,-96
1772819486.6618664,106,-2,41,146,-115,30,144,-71,-50,-8,92,-19,-112,-5,-54,-36,-57,-25,-91,-30,136,-12,55,-23,62,-65,-20,-47,88,208,-170,-96
1772819486.6638196,94,-2,43,144,-116,28,145,-69,-50,-7,93,-18,-111,-6,-54,-36,-56,-24,-89,-32,140,-10,58,-13,61,-64,-20,-50,86,205,-172,-96
1772819486.6657727,94,0,45,146,-117,27,143,-65,-50,-7,93,-19,-111,-5,-54,-35,-52,-22,-87,-29,138,-9,59,-16,56,-64,-21,-52,84,202,-173,-97
1772819486.6677258,99,-2,44,147,-118,28,142,-64,-51,-7,95,-19,-110,-3,-51,-32,-48,-19,-86,-23,135,-10,57,-26,52,-64,-19,-55,81,200,-173,-97
1772819486.669679,104,-8,45,152,-117,30,142,-67,-52,-6,96,-21,-112,-5,-53,-36,-55,-22,-86,-25,140,-10,60,-32,58,-62,-11,-56,82,198,-171,-98
1772819486.671632,105,-8,44,154,-116,30,145,-69,-55,-9,94,-24,-114,-8,-57,-41,-63,-24,-87,-28,144,-11,63,-27,65,-58,-11,-51,86,200,-169,-98
1772819486.6735852,99,-11,39,152,-117,25,154,-73,-56,-11,94,-25,-115,-7,-55,-38,-62,-22,-85,-27,145,-11,63,-20,63,-58,-17,-49,89,202,-169,-98
1772819486.6755383,94,-15,38,150,-119,23,158,-76,-57,-12,92,-26,-115,-7,-51,-33,-54,-18,-83,-24,146,-11,63,-14,59,-60,-20,-52,91,202,-170,-99
1772819486.6774914,83,-6,38,144,-121,29,154,-77,-58,-12,89,-26,-115,-10,-51,-31,-49,-15,-83,-21,149,-12,64,-12,56,-61,-19,-54,101,201,-171,-100
1772819486.6794446,68,4,32,135,-125,25,151,-79,-57,-10,94,-24,-114,-7,-46,-26,-43,-13,-80,-17,153,-11,65,-11,61,-63,-21,-58,96,198,-175,-102
1772819486.6813977,59,3,36,127,-128,23,153,-79,-56,-5,102,-20,-114,-2,-41,-21,-38,-11,-78,-14,156,-10,65,-6,67,-64,-14,-60,63,191,-180,-104
1772819486.6833508,62,2,45,123,-130,26,155,-77,-55,-2,106,-19,-114,-1,-41,-21,-40,-10,-79,-14,155,-12,63,-4,65,-66,-10,-56,50,187,-182,-107
1772819486.685304,76,1,47,124,-132,25,150,-77,-54,-3,102,-21,-114,-3,-43,-19,-38,-9,-79,-11,153,-13,60,-5,60,-71,-19,-50,66,187,-184,-108
1772819486.687257,88,-2,45,130,-132,25,153,-75,-55,-5,95,-23,-117,-6,-45,-19,-39,-10,-80,-9,151,-15,57,-7,58,-72,-25,-47,81,188,-183,-107
1772819486.6892102,93,-8,47,135,-129,21,157,-73,-55,-5,91,-25,-119,-9,-48,-22,-40,-12,-83,-11,149,-17,56,-7,60,-71,-24,-45,88,190,-180,-106
1772819486.6911633,95,-15,49,133,-126,22,160,-71,-54,-3,98,-24,-120,-10,-48,-22,-41,-15,-86,-14,147,-19,55,-9,60,-67,-24,-46,87,190,-178,-104
1772819486.6931164,98,-18,49,131,-123,27,165,-68,-54,-2,104,-24,-120,-11,-46,-20,-40,-16,-89,-18,144,-19,54,-11,56,-65,-26,-52,83,188,-176,-103
1772819486.6950696,99,-15,46,137,-118,27,169,-66,-55,-1,99,-26,-120,-14,-47,-20,-40,-18,-90,-17,142,-18,55,-11,56,-63,-26,-56,79,186,-173,-101
1772819486.6970227,93,-7,40,144,-114,27,161,-67,-55,-2,90,-28,-120,-16,-52,-23,-41,-18,-90,-16,142,-17,58,-7,62,-60,-24,-56,80,183,-168,-99
1772819486.6989758,85,7,39,142,-111,34,144,-64,-55,-6,82,-30,-121,-17,-53,-26,-43,-17,-89,-15,144,-16,59,-6,62,-58,-23,-53,82,185,-165,-97
1772819486.700929,78,15,45,146,-110,30,138,-60,-56,-8,82,-30,-121,-16,-51,-30,-49,-19,-90,-17,146,-15,59,-6,61,-59,-21,-51,80,189,-164,-96
1772819486.702882,75,14,48,150,-109,10,141,-58,-54,-8,88,-29,-120,-14,-51,-34,-51,-18,-87,-15,150,-13,61,-6,62,-59,-18,-50,65,191,-164,-95
1772819486.7048352,75,6,46,146,-111,6,141,-59,-53,-10,90,-29,-116,-15,-53,-34,-46,-13,-82,-9,155,-10,63,-5,62,-61,-19,-53,62,189,-168,-96
1772819486.7067883,81,2,47,138,-116,14,142,-64,-55,-12,93,-29,-113,-15,-54,-33,-45,-11,-80,-9,156,-8,64,-4,62,-62,-28,-55,78,186,-172,-96
1772819486.7087414,90,2,50,133,-122,32,145,-72,-56,-14,96,-28,-112,-13,-52,-33,-46,-10,-78,-11,155,-7,64,-14,63,-65,-33,-58,88,182,-176,-97
1772819486.7106946,93,-2,50,128,-126,35,145,-77,-56,-13,99,-26,-112,-10,-47,-30,-43,-9,-77,-12,156,-5,65,-27,61,-67,-35,-58,99,179,-179,-97
1772819486.7126477,92,-13,51,127,-124,30,143,-77,-54,-13,98,-26,-111,-12,-49,-31,-43,-9,-77,-12,160,-4,65,-14,59,-66,-39,-57,104,178,-179,-96
1772819486.7146008,84,-15,55,131,-120,29,145,-73,-52,-12,94,-25,-109,-10,-51,-32,-40,-8,-74,-8,161,-3,67,-5,58,-63,-36,-64,74,169,-176,-92
1772819486.716554,76,-6,58,137,-116,30,147,-68,-50,-12,86,-24,-109,-8,-54,-33,-42,-8,-74,-8,161,-3,68,-6,53,-60,-28,-71,61,166,-172,-90
1772819486.718507,76,1,60,142,-115,31,147,-68,-51,-14,79,-23,-109,-7,-56,-37,-49,-11,-76,-11,158,-4,67,-8,53,-59,-27,-67,69,170,-170,-92
