Timestamp,Fp1,AF3,F7,F3,FC1,FC5,T7,C3,CP1,CP5,P7,P3,Pz,PO3,O1,Oz,O2,PO4,P4,P8,CP6,CP2,C4,T8,FC6,FC2,F4,F8,AF4,Fp2,Fz,Cz
1772819824.968403,-9,-4,-12,0,-1,-2,-2,0,1,-1,-1,2,4,1,0,1,1,1,1,3,4,1,2,4,2,2,4,2,-3,-3,0,1
1772819824.9703562,-7,-3,-9,-1,-1,1,-1,1,1,1,1,3,4,1,0,1,0,0,1,3,3,1,0,5,-2,-2,0,2,2,-3,-2,0
1772819824.9723094,-6,-1,-6,-2,-1,3,0,3,2,3,3,3,3,1,1,1,0,-1,0,3,2,0,-2,5,-7,-5,-4,3,6,-4,-4,-1
1772819824.9742625,-4,0,-4,-3,-1,5,1,4,2,5,5,4,3,1,1,1,-1,-2,-1,2,1,0,-3,6,-10,-8,-7,3,9,-4,-5,-2
1772819824.9762156,-3,1,-2,-3,-1,6,2,4,2,7,7,4,2,1,2,1,-1,-3,-2,2,0,-1,-5,7,-13,-10,-9,4,12,-4,-6,-2
1772819824.9781687,-2,2,-1,-4,-1,7,2,5,2,7,8,4,2,1,2,0,-2,-4,-2,1,-1,-1,-5,9,-15,-11,-11,5,15,-4,-6,-3
1772819824.9801219,-2,3,0,-4,-1,7,3,5,2,8,9,5,1,1,2,-1,-4,-5,-3,0,-2,-1,-6,10,-15,-12,-11,6,16,-3,-6,-3
1772819824.982075,-2,3,1,-4,-1,6,3,4,2,7,10,4,1,1,2,-1,-5,-7,-4,0,-2,-1,-6,12,-15,-12,-11,7,17,-3,-5,-3
1772819824.984028,-2,3,1,-3,0,5,3,4,2,6,10,4,0,2,1,-2,-7,-8,-5,-1,-3,-1,-5,13,-14,-11,-10,9,18,-2,-4,-3
1772819824.9859812,-2,3,0,-3,0,4,3,3,2,5,10,4,0,2,1,-3,-8,-10,-6,-2,-3,-1,-5,15,-12,-10,-9,10,18,-1,-3,-2
1772819824.9879344,-2,3,-1,-2,1,2,3,2,2,4,9,4,0,3,1,-3,-10,-11,-7,-3,-3,-1,-4,16,-10,-9,-7,10,18,-1,-2,-2
1772819824.9898875,-2,2,-1,-1,1,0,3,1,2,3,8,4,0,3,0,-4,-11,-12,-7,-4,-3,-1,-4,17,-8,-8,-5,11,18,-1,-1,-1
1772819824.9918406,-2,2,-2,0,1,-2,3,1,2,1,7,4,1,4,0,-4,-12,-13,-8,-5,-4,-1,-3,18,-6,-7,-3,11,17,-1,-1,0
1772819824.9937937,-2,2,-3,0,1,-4,3,0,2,0,6,4,2,5,0,-4,-12,-13,-8,-5,-4,0,-3,18,-5,-6,-2,11,17,-1,0,0
1772819824.9957469,-1,1,-4,1,0,-5,3,0,3,0,4,4,2,6,0,-4,-13,-14,-8,-5,-4,0,-3,17,-5,-5,-1,11,17,-2,0,1
1772819824.9977,0,1,-5,2,0,-6,4,-1,3,-1,3,5,3,6,0,-4,-13,-14,-8,-5,-4,0,-3,16,-5,-4,0,11,17,-3,0,1
1772819824.999653,1,1,-5,3,0,-7,3,-1,4,-1,2,5,5,7,0,-4,-13,-14,-8,-5,-4,1,-2,15,-5,-4,1,10,18,-4,-1,2
1772819825.0016062,3,0,-6,4,-1,-6,3,-1,4,-1,0,6,6,7,0,-4,-12,-13,-7,-5,-4,1,-3,14,-6,-4,1,10,18,-5,-1,2
1772819825.0035594,4,0,-6,5,-1,-6,3,-1,5,-1,-1,6,7,7,0,-4,-12,-13,-7,-4,-3,1,-3,12,-7,-4,1,9,19,-5,-2,2
1772819825.0055125,5,-1,-6,5,-2,-5,2,-2,5,-1,-3,7,8,7,-1,-4,-12,-12,-6,-4,-3,1,-2,11,-8,-4,1,9,19,-6,-2,3
1772819825.0074656,5,-1,-7,6,-2,-3,1,-2,5,0,-4,7,9,7,-1,-4,-12,-12,-5,-3,-2,2,-2,10,-9,-4,1,9,19,-6,-3,3
1772819825.0094187,5,-2,-7,6,-3,-2,-1,-2,5,0,-5,7,9,7,-1,-4,-11,-11,-5,-3,-1,2,-2,9,-10,-4,1,9,19,-6,-3,3
1772819825.0113719,5,-2,-8,6,-3,-1,-2,-3,5,0,-6,6,10,6,-2,-4,-11,-11,-4,-2,0,2,-1,9,-11,-4,1,9,19,-5,-3,3
1772819825.013325,4,-2,-9,6,-3,0,-3,-3,5,-1,-7,6,11,5,-2,-4,-11,-10,-3,-1,1,2,-1,10,-11,-4,1,10,18,-4,-3,3
1772819825.015278,2,-3,-11,6,-3,0,-4,-4,4,-1,-8,5,11,4,-3,-4,-10,-9,-2,-1,3,3,0,10,-11,-4,1,10,17,-3,-3,4
1772819825.0172312,1,-3,-13,5,-3,0,-6,-4,4,-2,-9,5,12,4,-3,-4,-9,-8,-1,0,4,3,0,12,-10,-3,1,11,16,-2,-2,4
1772819825.0191844,-1,-2,-14,5,-2,0,-6,-5,4,-2,-9,4,12,3,-4,-4,-9,-8,-1,1,5,3,1,13,-9,-3,2,11,15,-1,-2,4
1772819825.0211375,-3,-2,-16,4,-2,0,-7,-5,4,-3,-10,3,12,1,-4,-4,-8,-7,0,2,6,4,1,14,-8,-3,2,12,13,-1,-1,5
1772819825.0230906,-4,-1,-17,3,-1,-1,-7,-5,3,-4,-10,2,12,0,-4,-3,-7,-6,1,2,6,4,2,15,-8,-3,3,12,12,0,-1,5
1772819825.0250437,-5,-1,-18,2,0,-1,-7,-5,3,-5,-11,0,12,-1,-4,-3,-6,-5,1,3,6,4,2,16,-7,-3,3,13,11,0,0,6
1772819825.0269969,-5,0,-19,1,0,-2,-6,-5,3,-6,-11,-1,12,-3,-5,-3,-6,-5,1,4,6,4,2,16,-7,-3,3,13,11,0,0,7
1772819825.02895,-5,1,-19,1,1,-3,-5,-5,2,-6,-12,-3,11,-4,-5,-3,-5,-4,1,4,6,4,2,17,-7,-3,4,13,11,0,1,7
1772819825.030903,-5,1,-18,0,2,-3,-4,-4,2,-7,-12,-4,10,-6,-5,-3,-5,-4,1,5,6,4,2,17,-7,-2,4,14,11,0,2,7
1772819825.0328562,-3,1,-17,0,3,-4,-3,-4,1,-8,-13,-5,9,-7,-6,-3,-4,-4,1,5,5,3,2,16,-7,-2,5,14,12,0,3,8
1772819825.0348094,-2,0,-15,0,3,-4,-2,-3,1,-8,-13,-7,8,-9,-6,-3,-4,-4,1,5,5,3,2,16,-7,-1,6,15,13,0,4,8
1772819825.0367625,0,-1,-13,0,4,-4,-1,-3,0,-8,-13,-8,7,-11,-7,-3,-4,-4,0,5,4,2,2,15,-8,-1,7,15,14,0,5,8
1772819825.0387156,1,-2,-11,0,4,-3,0,-2,-1,-8,-13,-8,6,-12,-8,-4,-4,-5,0,6,3,1,2,14,-8,0,7,15,15,0,6,7
1772819825.0406687,3,-4,-9,0,4,-3,1,-2,-1,-8,-13,-9,5,-13,-8,-4,-5,-6,-1,6,2,1,2,14,-8,1,8,16,17,1,6,7
1772819825.0426219,3,-6,-7,0,4,-2,2,-2,-2,-8,-13,-9,4,-13,-9,-5,-5,-6,-2,6,2,0,2,14,-7,1,9,16,18,1,7,6
1772819825.044575,4,-7,-6,0,4,-1,2,-1,-2,-8,-12,-9,3,-14,-9,-5,-6,-7,-3,6,1,-1,2,14,-7,1,9,17,19,2,7,6
1772819825.046528,3,-9,-5,0,4,0,2,-1,-2,-7,-11,-8,2,-13,-9,-5,-6,-8,-3,5,0,-1,2,14,-6,1,9,17,19,3,7,5
1772819825.0484812,2,-9,-4,-1,3,0,2,-1,-2,-7,-10,-7,2,-13,-9,-5,-7,-8,-4,5,0,-2,2,14,-6,1,9,17,19,4,6,5
1772819825.0504344,0,-9,-4,-2,2,1,1,-1,-2,-6,-9,-6,2,-11,-8,-5,-7,-9,-4,5,-1,-2,2,15,-5,1,9,17,19,5,6,4
1772819825.0523875,-2,-9,-4,-3,1,2,1,-1,-2,-5,-7,-4,3,-10,-7,-4,-7,-9,-5,4,-1,-2,2,16,-5,0,8,16,18,5,5,4
1772819825.0543406,-4,-7,-4,-4,1,2,0,-1,-2,-5,-6,-3,3,-8,-6,-3,-7,-10,-5,4,-1,-2,2,16,-5,-1,7,16,17,6,4,3
1772819825.0562937,-6,-6,-5,-5,0,2,-1,-2,-1,-4,-5,-1,4,-5,-4,-2,-7,-10,-5,3,-2,-2,1,17,-5,-2,6,16,16,6,3,3
1772819825.0582469,-8,-4,-5,-6,-1,1,-1,-3,-1,-3,-3,0,5,-3,-3,-1,-7,-10,-5,3,-2,-2,1,18,-6,-3,4,16,15,7,2,3
1772819825.0602,-9,-1,-6,-7,-1,0,-2,-3,0,-3,-2,2,6,-1,-1,0,-7,-10,-5,2,-2,-2,1,18,-6,-4,4,16,14,7,2,3
1772819825.062153,-10,0,-7,-8,-1,-2,-3,-4,0,-2,-2,3,7,2,1,1,-7,-11,-5,2,-2,-1,0,18,-7,-5,3,16,14,6,1,3
1772819825.0641062,-10,2,-8,-9,-1,-4,-3,-4,1,-2,-2,4,8,4,3,2,-7,-11,-5,1,-2,-1,0,17,-8,-5,2,17,13,6,1,2
1772819825.0660594,-9,3,-9,-9,-1,-6,-3,-4,1,-2,-2,5,8,6,4,2,-7,-11,-5,0,-3,-1,-1,17,-9,-6,2,17,13,5,1,2
1772819825.0680125,-8,3,-9,-10,-1,-8,-4,-4,2,-1,-2,5,9,7,5,3,-7,-11,-5,-1,-3,-1,-1,16,-9,-6,2,18,14,4,1,2
1772819825.0699656,-6,2,-10,-10,-1,-10,-4,-4,2,-1,-3,5,10,8,6,3,-8,-11,-5,-1,-3,-1,-2,15,-10,-6,3,19,15,3,1,2
1772819825.0719187,-4,1,-11,-10,0,-12,-4,-4,2,-1,-4,5,10,8,6,3,-8,-11,-5,-2,-3,-1,-2,14,-9,-5,3,20,15,3,1,2
1772819825.0738719,-2,0,-11,-9,0,-13,-4,-3,3,-1,-6,5,10,8,6,3,-8,-11,-5,-3,-3,-1,-2,14,-9,-5,4,20,16,3,1,2
1772819825.075825,0,-2,-11,-8,0,-14,-4,-2,3,-2,-7,5,10,8,6,2,-8,-11,-4,-3,-3,-1,-2,13,-8,-4,4,21,17,3,0,2
1772819825.077778,1,-4,-11,-7,0,-15,-4,-1,3,-2,-9,4,10,7,5,1,-8,-10,-4,-4,-2,0,-1,13,-6,-3,4,21,17,3,0,2
1772819825.0797312,2,-6,-11,-6,0,-15,-4,1,4,-2,-11,3,9,5,3,0,-9,-10,-3,-4,-2,0,-1,12,-5,-2,4,21,17,4,0,2
1772819825.0816844,3,-8,-10,-5,0,-14,-4,2,4,-2,-13,2,9,3,2,-1,-9,-9,-2,-4,-1,1,0,13,-4,-1,3,21,17,5,-1,3
1772819825.0836375,3,-9,-9,-4,0,-13,-4,3,4,-2,-15,1,8,1,0,-2,-9,-8,-2,-4,0,2,1,13,-2,-1,3,21,16,7,-1,3
1772819825.0855906,2,-9,-9,-4,-1,-11,-4,3,4,-3,-16,-1,8,-2,-2,-3,-9,-8,-1,-4,1,3,2,13,-1,0,2,21,16,8,-2,4
1772819825.0875437,2,-10,-8,-3,-1,-9,-4,4,4,-3,-18,-2,7,-4,-4,-5,-9,-7,0,-4,2,3,3,14,0,1,2,22,15,9,-2,4
1772819825.0894969,1,-9,-7,-2,-1,-7,-4,4,3,-4,-19,-4,6,-7,-6,-6,-9,-6,1,-4,3,4,3,14,1,2,1,22,16,10,-2,5
1772819825.09145,0,-9,-7,-1,-1,-5,-4,4,3,-4,-20,-6,6,-10,-8,-7,-9,-6,2,-3,4,5,4,14,1,2,1,22,16,11,-2,5
1772819825.093403,-1,-7,-6,-1,0,-3,-4,4,3,-5,-21,-7,5,-12,-10,-8,-9,-5,2,-3,5,5,5,14,1,3,1,23,17,11,-2,6
1772819825.0953562,-2,-6,-6,0,0,-1,-4,4,2,-6,-21,-9,4,-14,-11,-9,-9,-5,3,-2,6,6,5,13,2,3,1,23,18,11,-2,6
1772819825.0973094,-2,-4,-5,1,0,0,-5,3,2,-6,-22,-10,4,-16,-13,-10,-9,-5,3,-1,6,6,5,13,2,3,1,24,19,10,-1,6
1772819825.0992625,-2,-2,-5,1,0,1,-5,3,1,-7,-22,-11,3,-18,-14,-11,-9,-4,3,-1,7,5,5,12,2,3,1,24,20,10,-1,6
1772819825.1012156,-2,0,-5,2,0,2,-5,3,0,-7,-21,-12,3,-19,-14,-11,-9,-4,3,0,7,5,5,12,1,3,1,24,22,9,0,6
1772819825.1031687,-2,2,-4,2,1,2,-4,3,0,-7,-21,-12,3,-19,-14,-11,-8,-4,3,0,7,5,5,11,1,2,1,23,23,8,0,5
1772819825.1051219,-2,3,-4,3,1,2,-4,4,-1,-7,-20,-13,2,-19,-14,-11,-8,-4,3,0,7,4,4,10,1,2,1,23,23,8,0,5
1772819825.107075,-2,4,-3,3,1,2,-4,4,-1,-7,-19,-12,2,-19,-14,-10,-8,-3,3,0,7,4,4,10,0,1,0,22,24,7,0,4
1772819825.109028,-2,5,-3,3,0,2,-4,4,-1,-6,-18,-12,2,-18,-13,-10,-7,-3,3,0,6,3,3,10,0,0,0,21,24,7,-1,3
1772819825.1109812,-1,5,-3,4,0,1,-3,5,-1,-5,-17,-11,2,-17,-12,-9,-7,-3,2,0,6,2,3,10,-1,-1,-1,20,23,8,-1,2
1772819825.1129344,-1,5,-3,4,0,1,-3,5,-1,-4,-15,-10,2,-16,-11,-8,-6,-3,2,0,5,2,2,10,-2,-2,-2,19,22,8,-2,1
1772819825.1148875,-1,4,-2,4,-1,1,-3,5,-1,-4,-14,-8,2,-15,-10,-7,-6,-3,2,-1,5,2,1,10,-2,-3,-3,18,21,9,-3,1
1772819825.1168406,-1,3,-2,4,-1,1,-3,5,-1,-3,-13,-7,2,-13,-9,-6,-6,-3,2,-1,4,2,1,11,-3,-4,-4,17,20,10,-4,0
1772819825.1187937,-1,2,-2,4,-1,1,-4,5,-1,-2,-12,-6,2,-12,-8,-5,-5,-3,2,-1,4,2,1,12,-4,-4,-4,17,18,10,-4,0
1772819825.1207469,-1,0,-2,4,-2,1,-4,5,0,-2,-12,-5,2,-11,-7,-4,-5,-2,1,-2,4,2,1,12,-5,-5,-5,17,16,11,-5,0
1772819825.1227,-1,-2,-2,4,-2,2,-5,4,0,-2,-11,-4,3,-9,-6,-3,-5,-2,1,-2,4,2,1,13,-5,-5,-5,16,14,11,-5,0
1772819825.124653,-1,-4,-2,3,-3,2,-5,3,0,-2,-10,-4,3,-8,-5,-2,-4,-2,1,-2,4,2,1,13,-5,-5,-5,16,12,11,-6,1
1772819825.1266062,-1,-5,-2,2,-3,3,-5,2,0,-2,-10,-3,4,-7,-4,-1,-4,-2,1,-2,4,3,1,14,-6,-5,-5,16,9,11,-6,1
1772819825.1285594,0,-6,-1,1,-3,3,-6,1,0,-3,-9,-3,4,-5,-3,0,-4,-2,1,-2,4,3,1,14,-6,-5,-5,16,7,10,-6,2
1772819825.1305125,0,-6,-1,-1,-3,4,-6,0,0,-3,-9,-3,4,-4,-1,0,-4,-3,1,-2,4,3,1,14,-6,-5,-4,16,4,9,-6,2
1772819825.1324656,1,-5,-1,-2,-3,4,-6,-1,0,-4,-8,-2,5,-3,0,0,-4,-3,1,-1,4,3,1,13,-6,-4,-3,15,3,8,-6,3
1772819825.1344187,2,-4,0,-3,-3,4,-6,-2,0,-4,-8,-2,5,-2,0,1,-4,-4,1,-1,4,3,1,13,-6,-4,-2,15,1,7,-5,3
1772819825.1363719,2,-2,0,-4,-3,4,-5,-3,-1,-5,-7,-3,5,-1,1,1,-4,-5,0,-1,4,3,1,12,-5,-4,-1,15,1,6,-4,4
1772819825.138325,3,0,1,-5,-2,4,-5,-3,-1,-6,-6,-3,4,0,2,1,-5,-6,-1,-2,4,2,0,12,-5,-4,0,14,1,4,-3,4
1772819825.140278,4,3,1,-6,-2,4,-4,-4,-2,-6,-5,-3,4,1,2,0,-6,-7,-2,-2,3,1,0,11,-4,-3,1,14,3,3,-2,3
1772819825.1422312,5,6,1,-7,-1,3,-4,-4,-2,-6,-4,-3,3,2,2,0,-7,-9,-3,-3,3,0,0,10,-4,-3,2,13,5,3,-1,3
1772819825.1441844,5,9,2,-7,-1,3,-3,-5,-3,-6,-3,-3,2,3,3,-1,-8,-10,-4,-4,2,-1,-1,9,-3,-3,3,13,7,2,0,3
1772819825.1461375,5,11,2,-7,0,3,-3,-5,-3,-6,-3,-3,2,4,2,-2,-10,-11,-5,-5,1,-2,-2,8,-3,-3,3,13,10,2,2,3
1772819825.1480906,6,13,2,-7,0,2,-2,-5,-3,-6,-2,-2,1,4,2,-2,-11,-12,-7,-6,0,-3,-2,7,-2,-2,3,13,12,2,2,2
1772819825.1500437,6,15,2,-7,1,3,-1,-4,-3,-5,-1,-2,0,5,2,-3,-11,-13,-8,-7,0,-4,-3,6,-2,-2,3,13,15,2,3,2
1772819825.1519969,6,15,2,-7,1,3,-1,-4,-3,-4,-1,-1,0,5,1,-4,-12,-13,-8,-7,-1,-4,-4,5,-2,-3,3,13,16,2,3,1
1772819825.15395,5,15,2,-7,1,3,0,-3,-3,-3,0,-1,0,5,1,-5,-12,-13,-8,-7,-1,-4,-4,5,-2,-3,2,13,17,2,3,1
1772819825.155903,4,14,1,-6,0,4,1,-3,-2,-2,0,0,0,5,0,-5,-12,-13,-8,-6,-1,-4,-4,5,-2,-4,1,13,17,2,2,1
1772819825.1578562,4,13,0,-6,0,4,2,-2,-1,-1,1,0,0,5,-1,-6,-12,-11,-7,-6,0,-3,-4,6,-2,-4,0,13,16,3,1,1
1772819825.1598094,3,11,-1,-6,-1,5,3,-2,-1,-1,1,0,0,4,-2,-7,-11,-10,-6,-4,0,-3,-4,7,-2,-5,-1,14,15,3,-1,1
1772819825.1617625,2,8,-3,-5,-2,5,3,-1,0,0,0,0,1,2,-3,-8,-10,-9,-5,-3,1,-2,-3,8,-2,-5,-2,14,14,4,-2,1
1772819825.1637156,1,6,-4,-5,-2,5,3,-1,0,0,0,0,1,0,-5,-8,-9,-7,-3,-1,3,0,-2,9,-1,-6,-3,14,12,4,-4,1
1772819825.1656687,0,4,-6,-5,-3,5,3,-1,0,0,-1,-1,1,-3,-6,-9,-8,-6,-1,1,4,1,-1,11,-1,-6,-3,15,11,5,-5,1
1772819825.1676219,-1,3,-7,-4,-4,5,3,-1,0,0,-2,-2,1,-6,-8,-10,-8,-5,1,3,6,2,1,13,0,-5,-2,15,10,6,-5,2
1772819825.169575,-2,3,-8,-4,-4,4,3,-1,-1,-1,-3,-3,1,-9,-10,-11,-7,-4,2,4,7,3,2,14,1,-4,-2,16,10,7,-6,2
1772819825.171528,-2,4,-9,-4,-4,3,2,-1,-1,-2,-4,-5,0,-12,-12,-12,-7,-4,3,5,8,4,4,15,2,-3,0,16,11,7,-5,2
1772819825.1734812,-2,5,-9,-3,-4,2,1,-1,-2,-3,-6,-7,-1,-14,-13,-12,-8,-4,4,6,9,4,6,15,3,-2,1,17,12,8,-5,3
1772819825.1754344,-2,7,-9,-2,-4,0,-1,-1,-3,-4,-7,-8,-1,-16,-15,-13,-8,-4,4,6,9,4,7,15,4,-1,3,17,14,8,-4,3
1772819825.1773875,-2,10,-8,-1,-3,-1,-2,-1,-4,-5,-8,-9,-2,-18,-16,-13,-8,-5,3,6,9,3,7,15,5,0,4,17,16,8,-2,3
1772819825.1793406,-1,13,-7,1,-2,-2,-3,-1,-5,-5,-8,-10,-3,-18,-16,-13,-9,-6,3,5,8,2,7,14,6,1,6,16,17,8,-1,2
1772819825.1812937,-1,17,-6,2,-2,-2,-4,-1,-5,-5,-9,-10,-4,-18,-16,-12,-9,-6,1,4,7,1,6,13,5,1,6,16,18,7,0,2
1772819825.1832469,0,20,-3,5,-1,-3,-5,0,-5,-5,-8,-10,-4,-17,-15,-12,-9,-7,0,3,6,0,5,11,5,1,7,15,19,6,1,1
1772819825.1852,0,23,-1,7,-1,-2,-5,0,-5,-4,-8,-9,-4,-15,-13,-11,-9,-7,-1,2,4,-2,4,10,4,0,6,13,18,4,1,0
1772819825.187153,1,26,1,10,-1,-1,-5,1,-5,-4,-7,-8,-5,-13,-11,-10,-8,-8,-3,1,3,-3,1,9,3,-1,6,12,16,2,1,-1
1772819825.1891062,2,28,3,13,-1,0,-5,1,-5,-3,-5,-7,-5,-10,-9,-8,-8,-7,-4,1,1,-4,-1,8,2,-3,4,11,14,0,0,-2
1772819825.1910594,3,29,5,16,-2,2,-4,1,-5,-1,-4,-5,-5,-8,-7,-7,-7,-7,-5,0,-1,-5,-3,8,1,-5,3,10,10,-2,-1,-3
1772819825.1930125,3,29,7,18,-3,3,-3,1,-4,0,-2,-4,-4,-5,-5,-6,-7,-7,-5,-1,-2,-6,-5,8,0,-7,2,9,7,-4,-2,-4
1772819825.1949656,4,29,8,20,-4,5,-1,0,-4,1,-1,-3,-4,-3,-4,-6,-6,-6,-5,-1,-3,-6,-6,8,-1,-9,1,8,3,-5,-4,-6
1772819825.1969187,5,28,9,21,-5,6,1,0,-4,2,1,-2,-4,-2,-3,-5,-6,-6,-6,-1,-3,-7,-7,9,-1,-11,0,8,-1,-5,-5,-6
1772819825.1988719,5,27,9,22,-6,7,3,-1,-3,2,2,-1,-4,-1,-2,-5,-6,-6,-6,-1,-4,-7,-8,10,-1,-11,-1,8,-3,-5,-6,-7
1772819825.200825,5,25,8,21,-7,7,4,-2,-3,3,3,-1,-4,-1,-1,-5,-6,-6,-5,-1,-4,-6,-7,11,0,-12,-1,9,-5,-4,-7,-7
1772819825.202778,5,23,8,20,-7,7,6,-3,-3,3,3,-1,-4,-2,-2,-6,-6,-6,-5,-1,-3,-6,-7,12,1,-12,-1,10,-7,-3,-8,-7
1772819825.2047312,5,21,7,18,-7,7,7,-4,-2,3,4,-1,-4,-3,-2,-6,-7,-7,-5,-1,-3,-5,-6,12,1,-11,-1,11,-7,-1,-8,-6
1772819825.2066844,5,19,6,16,-7,6,7,-5,-2,3,4,-2,-3,-4,-3,-7,-8,-8,-4,-2,-2,-4,-4,13,2,-10,0,11,-6,0,-8,-5
1772819825.2086375,5,18,5,14,-7,5,8,-5,-2,2,4,-2,-3,-5,-4,-8,-9,-9,-4,-2,-2,-3,-3,12,3,-8,0,12,-4,2,-7,-3
1772819825.2105906,4,16,5,11,-6,4,7,-5,-1,2,3,-3,-3,-6,-4,-9,-10,-9,-4,-3,-1,-2,-2,12,3,-7,0,12,-1,3,-6,-2
1772819825.2125437,4,15,4,9,-5,3,7,-5,-1,2,2,-3,-2,-7,-5,-9,-11,-10,-3,-4,-1,-1,0,10,3,-5,0,12,1,4,-5,0
1772819825.2144969,3,14,4,8,-4,2,6,-4,0,2,2,-4,-1,-8,-6,-10,-12,-11,-3,-5,0,0,1,9,2,-4,0,12,4,4,-4,1
1772819825.21645,3,14,4,7,-2,2,5,-3,0,1,1,-4,0,-8,-7,-10,-13,-11,-3,-6,0,0,1,7,1,-3,0,11,7,3,-2,3
1772819825.218403,3,14,4,6,0,2,4,-2,1,1,0,-4,0,-8,-7,-10,-13,-11,-2,-7,0,1,2,5,0,-2,0,10,9,2,-1,4
1772819825.2203562,3,13,5,7,1,2,3,-1,2,1,-2,-4,1,-8,-7,-10,-13,-11,-2,-8,-1,2,2,3,-1,-2,-1,8,11,1,0,5
1772819825.2223094,4,13,5,8,3,2,2,1,2,0,-3,-4,2,-8,-7,-10,-13,-10,-1,-9,-1,2,2,1,-3,-2,-2,7,12,-1,1,6
1772819825.2242625,4,12,6,10,4,3,0,2,3,0,-4,-4,3,-7,-7,-10,-13,-9,-1,-10,-1,3,1,0,-4,-2,-3,5,12,-2,1,7
1772819825.2262156,4,11,6,11,5,3,0,3,4,-1,-5,-4,4,-7,-7,-10,-13,-8,0,-10,-1,4,1,-1,-6,-2,-4,3,12,-4,2,7
1772819825.2281687,5,10,6,13,6,3,-1,4,4,-1,-6,-4,5,-6,-7,-9,-12,-7,1,-10,-2,4,1,-2,-7,-3,-5,0,12,-4,2,7
1772819825.2301219,5,9,6,15,6,3,-2,5,5,-2,-7,-3,6,-5,-6,-8,-11,-6,2,-10,-2,5,0,-2,-8,-3,-6,-2,11,-5,1,7
1772819825.232075,5,8,6,16,6,3,-2,6,5,-2,-7,-3,7,-4,-6,-8,-10,-4,3,-9,-2,6,0,-1,-9,-4,-7,-3,10,-5,1,7
1772819825.234028,5,6,6,17,5,3,-2,6,5,-2,-7,-2,8,-4,-5,-7,-9,-3,4,-9,-2,6,0,0,-10,-4,-9,-5,9,-4,0,6
1772819825.2359812,4,5,5,17,4,3,-3,6,6,-2,-7,-2,9,-3,-4,-6,-8,-2,4,-8,-2,6,-1,1,-10,-5,-10,-6,8,-4,-2,6
1772819825.2379344,4,4,5,16,3,3,-3,6,6,-3,-7,-1,10,-2,-3,-5,-7,-1,5,-7,-2,7,-1,2,-11,-6,-11,-7,7,-2,-3,5
1772819825.2398875,3,3,4,15,2,2,-4,5,6,-2,-6,0,10,-1,-3,-4,-6,-1,5,-6,-1,7,-1,3,-11,-6,-12,-7,7,-1,-4,5
1772819825.2418406,2,2,3,13,1,2,-4,4,6,-2,-5,0,10,0,-2,-3,-5,0,5,-5,-1,7,-1,4,-10,-7,-13,-6,6,0,-6,4
1772819825.2437937,1,2,3,11,-1,1,-5,4,6,-2,-4,1,10,1,-1,-3,-5,0,5,-4,-1,7,-1,5,-9,-7,-13,-4,6,0,-7,4
1772819825.2457469,0,2,2,9,-2,0,-6,3,6,-2,-3,1,10,1,0,-2,-4,-1,4,-4,-1,7,-1,6,-8,-7,-12,-2,6,1,-8,3
1772819825.2477,-1,3,1,7,-3,0,-6,2,5,-2,-2,1,9,2,0,-2,-4,-1,4,-4,-1,6,-1,7,-7,-7,-11,1,6,1,-8,3
1772819825.249653,-2,3,0,5,-3,-1,-7,1,5,-2,-1,1,8,2,1,-1,-4,-1,3,-4,-1,5,-1,7,-5,-6,-10,4,6,2,-8,3
1772819825.2516062,-2,4,0,4,-4,-2,-7,0,4,-2,0,1,7,2,1,-1,-4,-2,2,-4,-1,5,-1,7,-3,-6,-8,7,6,2,-8,2
1772819825.2535594,-3,5,-1,3,-4,-2,-7,-1,3,-2,1,1,6,2,2,-1,-4,-2,1,-5,-2,4,-1,7,-1,-5,-6,10,6,1,-7,2
1772819825.2555125,-3,5,-2,3,-3,-3,-6,-1,3,-1,3,1,5,2,2,0,-4,-3,0,-5,-3,3,-1,6,0,-5,-4,12,5,1,-6,1
1772819825.2574656,-3,5,-2,4,-3,-3,-5,-2,2,-1,4,0,3,2,3,0,-4,-3,-1,-6,-3,2,-2,5,1,-5,-2,13,4,1,-5,1
1772819825.2594187,-2,5,-3,4,-3,-3,-4,-2,1,-1,5,0,2,2,3,0,-4,-3,-1,-6,-4,1,-2,4,2,-5,-1,14,3,0,-4,0
1772819825.2613719,-2,4,-3,6,-2,-3,-3,-2,1,0,6,0,2,3,4,1,-4,-3,-2,-6,-5,0,-2,3,2,-5,-1,13,1,-1,-4,-1
1772819825.263325,-1,3,-3,7,-2,-3,-1,-2,1,0,7,1,1,3,5,1,-3,-3,-2,-5,-5,0,-3,3,2,-6,-1,12,-1,-2,-3,-2
1772819825.265278,-1,2,-3,8,-2,-3,1,-2,1,1,8,1,1,4,6,2,-2,-3,-1,-5,-5,-1,-3,2,2,-7,-1,10,-3,-3,-3,-2
1772819825.2672312,-1,1,-3,8,-1,-2,2,-1,1,2,9,2,0,4,8,2,-1,-2,-1,-4,-6,-1,-4,2,1,-8,-2,7,-5,-3,-3,-3
1772819825.2691844,-1,0,-3,8,-1,-2,3,-1,1,2,10,2,0,5,9,3,0,-1,0,-2,-6,-1,-4,3,0,-9,-4,4,-6,-4,-4,-4
1772819825.2711375,-1,0,-2,8,-2,-2,4,0,1,3,11,3,1,6,10,4,2,0,1,-1,-6,-1,-4,4,-1,-10,-5,2,-8,-5,-4,-5
1772819825.2730906,-2,0,-2,7,-2,-3,4,0,1,4,12,4,1,7,11,4,3,1,2,1,-5,-1,-5,5,-3,-11,-7,0,-8,-5,-5,-5
1772819825.2750437,-4,0,-2,5,-2,-3,3,0,1,4,12,4,1,8,12,5,4,2,2,3,-5,-1,-5,6,-3,-11,-8,-1,-8,-6,-6,-5
1772819825.2769969,-5,1,-1,2,-3,-4,2,0,0,4,11,4,1,9,13,5,5,3,3,4,-5,-2,-5,8,-4,-12,-9,-1,-7,-6,-6,-6
1772819825.27895,-7,2,-1,-1,-4,-6,1,0,0,3,11,5,1,9,13,5,6,3,4,5,-4,-2,-5,9,-4,-12,-10,-1,-6,-5,-7,-6
1772819825.280903,-8,4,-1,-4,-4,-7,-1,0,-1,3,10,4,1,10,13,6,7,4,4,6,-4,-2,-5,11,-4,-11,-10,1,-3,-5,-7,-5
1772819825.2828562,-9,5,-2,-8,-5,-9,-2,-1,-1,2,9,4,1,10,13,6,7,4,4,7,-4,-2,-4,12,-4,-11,-10,3,0,-5,-8,-5
1772819825.2848094,-10,6,-2,-11,-5,-10,-4,-1,-2,1,8,4,1,10,14,6,7,4,5,7,-3,-2,-4,14,-4,-10,-10,5,3,-4,-8,-5
1772819825.2867625,-10,7,-2,-14,-6,-11,-6,-2,-2,0,7,4,0,10,14,6,7,4,4,7,-3,-2,-4,14,-3,-9,-9,7,6,-3,-8,-5
1772819825.2887156,-10,6,-2,-16,-6,-11,-7,-2,-3,-1,6,3,0,10,13,7,7,4,4,7,-3,-2,-3,15,-3,-9,-9,9,9,-3,-8,-4
1772819825.2906687,-9,5,-2,-17,-6,-11,-7,-2,-3,-2,6,3,0,10,13,7,7,4,4,6,-3,-2,-3,15,-3,-8,-8,10,12,-3,-8,-4
1772819825.2926219,-7,4,-2,-18,-6,-10,-7,-2,-3,-2,6,3,-1,10,13,7,6,3,4,6,-3,-2,-3,15,-3,-8,-8,10,14,-3,-8,-4
1772819825.294575,-5,2,-2,-17,-6,-8,-7,-2,-3,-3,6,2,-1,9,13,7,6,3,3,5,-3,-1,-3,15,-3,-8,-8,9,15,-4,-8,-4
1772819825.296528,-3,-1,-1,-16,-5,-6,-7,-1,-3,-3,6,2,-1,9,12,7,5,2,3,4,-3,-1,-3,14,-2,-8,-8,8,15,-4,-8,-4
1772819825.2984812,-1,-3,-1,-14,-5,-4,-6,-1,-3,-3,6,2,-1,8,12,6,4,1,3,3,-3,-1,-3,14,-2,-8,-7,7,15,-5,-7,-3
1772819825.3004344,1,-6,0,-11,-4,-1,-5,0,-3,-3,6,1,-1,6,11,5,3,0,2,2,-2,0,-2,14,-2,-8,-7,5,14,-5,-7,-3
1772819825.3023875,3,-8,0,-8,-4,1,-4,0,-2,-3,7,1,-1,5,10,4,2,-1,2,1,-2,0,-2,13,-1,-8,-7,4,12,-6,-6,-3
1772819825.3043406,4,-9,1,-5,-3,3,-3,1,-2,-2,7,0,-1,3,8,3,0,-2,1,1,-2,0,-2,13,-1,-7,-6,3,10,-5,-5,-3
1772819825.3062937,4,-9,2,-3,-2,5,-2,1,-2,-2,7,-1,-2,2,6,1,-1,-3,0,0,-2,1,-2,12,0,-7,-5,2,8,-5,-4,-2
1772819825.3082469,5,-8,2,0,-1,6,-2,1,-1,-3,6,-2,-2,0,4,0,-2,-4,0,-1,-2,1,-1,12,2,-6,-4,3,6,-4,-3,-2
1772819825.3102,5,-7,3,1,0,7,-2,1,-1,-3,6,-3,-2,-2,2,-2,-4,-4,-1,-1,-2,1,-1,11,3,-5,-3,4,4,-3,-2,-2
1772819825.312153,4,-4,4,2,0,8,-1,2,0,-3,6,-4,-2,-4,0,-4,-5,-5,-1,-2,-3,1,-1,10,4,-4,-1,5,3,-1,-1,-1
1772819825.3141062,3,-1,4,1,1,8,-1,2,0,-2,5,-5,-2,-5,-2,-6,-6,-6,-2,-2,-3,1,-1,9,5,-3,0,7,1,1,0,-1
1772819825.3160594,3,2,5,0,2,7,-1,3,1,-2,5,-6,-2,-7,-4,-8,-8,-6,-2,-3,-4,1,-1,7,5,-2,0,9,0,2,1,0
1772819825.3180125,2,6,5,-2,2,7,-1,3,2,-1,5,-6,-1,-7,-5,-9,-9,-7,-3,-4,-5,1,-2,6,5,-2,0,11,0,4,1,1
1772819825.3199656,2,9,6,-4,2,7,0,4,3,0,5,-6,-1,-8,-6,-10,-9,-7,-3,-4,-5,1,-2,4,5,-1,0,12,-1,5,1,1
1772819825.3219187,2,11,6,-6,3,6,0,6,3,1,5,-5,-1,-8,-7,-11,-10,-7,-3,-5,-6,1,-2,2,4,-1,0,12,-1,6,1,1
1772819825.3238719,3,12,7,-9,3,5,1,7,4,2,6,-4,0,-8,-7,-11,-10,-7,-3,-5,-7,1,-3,1,3,-2,-1,12,-1,7,1,2
1772819825.325825,4,13,7,-12,3,5,1,9,5,4,6,-3,0,-7,-6,-11,-11,-7,-3,-6,-7,1,-3,0,1,-2,-2,12,-1,7,0,2
1772819825.327778,4,12,7,-14,3,4,1,10,6,5,7,-2,1,-6,-6,-11,-10,-7,-3,-6,-7,2,-3,-1,0,-3,-4,10,0,7,-1,2
1772819825.3297312,5,11,7,-15,3,4,1,12,7,6,7,0,1,-5,-5,-10,-10,-6,-2,-6,-7,2,-4,-2,-1,-3,-5,9,0,6,-2,3
1772819825.3316844,6,9,7,-16,3,3,1,13,7,7,7,1,2,-4,-4,-9,-10,-6,-2,-6,-7,2,-4,-1,-2,-4,-5,8,0,5,-3,2
1772819825.3336375,7,6,6,-16,3,3,0,13,7,8,7,2,2,-3,-3,-9,-9,-6,-1,-5,-7,2,-3,0,-2,-4,-6,6,0,4,-4,2
1772819825.3355906,7,4,6,-16,2,2,-1,13,7,8,6,2,2,-2,-2,-8,-8,-5,-1,-5,-6,2,-3,1,-3,-5,-6,5,1,3,-5,2
1772819825.3375437,8,2,5,-15,2,2,-2,13,6,7,6,3,2,-1,0,-6,-7,-5,0,-4,-5,2,-3,3,-2,-5,-6,4,1,1,-5,1
1772819825.3394969,7,1,4,-14,1,1,-3,12,6,7,5,2,2,-1,1,-5,-6,-4,1,-3,-5,2,-2,5,-1,-5,-6,4,2,0,-5,0
1772819825.34145,6,0,3,-13,0,1,-5,10,5,5,4,2,1,0,2,-4,-5,-4,1,-2,-4,2,-1,6,0,-5,-5,4,2,-1,-5,0
1772819825.343403,5,0,2,-12,-1,1,-6,8,4,4,2,2,1,0,3,-3,-4,-3,2,-1,-3,2,-1,8,1,-5,-5,4,3,-1,-5,-1
1772819825.3453562,3,0,1,-12,-1,0,-8,6,3,3,1,1,1,0,4,-2,-3,-2,3,0,-3,2,0,9,2,-5,-4,4,3,-2,-5,-1
1772819825.3473094,1,1,1,-12,-2,0,-9,5,2,1,1,1,1,1,4,-1,-2,-2,3,1,-2,2,0,10,4,-5,-4,4,4,-2,-5,-2
1772819825.3492625,-1,2,0,-11,-3,-1,-10,3,2,0,0,0,2,1,5,0,0,-1,4,1,-2,3,1,10,5,-5,-4,4,5,-3,-5,-2
1772819825.3512156,-3,3,-1,-11,-3,-2,-10,1,1,-1,-1,0,2,1,6,1,1,0,4,2,-2,3,1,10,6,-5,-4,4,6,-3,-5,-2
1772819825.3531687,-5,3,-2,-11,-4,-2,-10,0,1,-2,-1,0,2,1,6,2,2,1,5,2,-2,3,2,10,6,-5,-4,4,7,-3,-5,-2
1772819825.3551219,-6,3,-3,-11,-4,-3,-10,0,1,-3,-2,0,3,2,7,3,3,2,5,2,-2,3,2,9,7,-5,-4,4,8,-4,-5,-1
1772819825.357075,-7,2,-4,-11,-3,-5,-9,-1,2,-3,-2,0,4,2,7,4,3,3,5,2,-3,4,2,8,7,-4,-4,3,9,-4,-5,-1
1772819825.359028,-8,1,-5,-10,-3,-6,-9,0,2,-3,-2,1,4,2,7,5,4,3,5,2,-3,4,2,6,6,-4,-4,2,10,-5,-5,0
1772819825.3609812,-8,-1,-6,-9,-2,-7,-8,0,3,-3,-2,1,5,3,7,6,4,4,5,1,-4,4,1,5,6,-4,-3,2,10,-6,-4,0
1772819825.3629344,-7,-4,-7,-8,-1,-8,-7,1,4,-3,-2,2,6,3,7,6,4,4,4,0,-4,4,1,4,5,-3,-3,1,10,-7,-4,1
1772819825.3648875,-6,-6,-7,-7,0,-9,-6,3,4,-2,-2,3,7,4,7,6,4,4,4,-1,-4,4,0,3,4,-3,-2,1,10,-8,-3,1
1772819825.3668406,-5,-9,-8,-6,0,-10,-5,4,5,-2,-1,3,7,5,6,6,3,4,3,-2,-5,4,0,3,3,-2,-2,0,8,-8,-3,2
1772819825.3687937,-4,-11,-7,-5,1,-10,-4,5,5,-1,0,4,8,5,6,5,2,4,3,-3,-5,4,-1,3,2,-2,-2,1,7,-8,-2,2
1772819825.3707469,-2,-12,-6,-5,1,-10,-3,6,6,-1,1,4,8,5,5,5,2,3,2,-4,-5,3,-1,3,1,-2,-1,1,5,-8,-2,2
1772819825.3727,-1,-12,-5,-5,2,-10,-2,6,6,0,2,4,8,6,5,4,1,3,2,-5,-5,3,-2,3,0,-2,-1,2,3,-8,-2,2
1772819825.374653,1,-11,-3,-6,2,-10,-1,6,6,0,3,5,8,6,4,3,0,2,1,-5,-4,3,-2,3,-2,-2,-2,2,0,-7,-2,2
1772819825.3766062,2,-9,0,-7,1,-9,0,6,5,1,4,4,8,5,3,2,-1,2,1,-5,-4,3,-2,3,-3,-3,-2,3,-2,-6,-2,2
1772819825.3785594,2,-7,2,-9,1,-8,1,5,5,1,4,4,8,5,2,1,-2,2,1,-6,-3,3,-2,3,-4,-3,-3,4,-3,-4,-3,2
1772819825.3805125,2,-4,5,-11,0,-7,1,5,4,1,5,4,7,5,2,0,-2,1,1,-5,-3,3,-2,3,-4,-3,-3,5,-4,-3,-4,2
1772819825.3824656,2,-1,7,-13,-1,-6,2,4,4,1,5,3,7,4,1,-1,-2,1,2,-5,-2,3,-2,3,-5,-3,-4,6,-4,-1,-4,2
1772819825.3844187,1,2,9,-14,-2,-5,2,3,3,0,6,2,6,3,0,-1,-2,1,2,-4,-1,3,-1,2,-5,-3,-5,6,-4,0,-5,2
1772819825.3863719,1,4,10,-16,-3,-5,2,2,2,0,6,1,6,2,0,-2,-2,1,3,-3,-1,3,-1,2,-4,-3,-5,6,-4,1,-6,2
1772819825.388325,0,6,11,-17,-4,-4,2,1,2,-1,6,0,6,1,0,-2,-2,1,3,-2,0,3,-1,1,-4,-3,-5,7,-3,1,-6,2
1772819825.390278,-1,7,11,-17,-4,-4,2,1,1,-1,6,0,5,0,0,-1,-1,2,4,-1,0,3,0,1,-3,-3,-5,6,-2,1,-7,2
1772819825.3922312,-1,8,10,-17,-4,-4,2,1,1,-2,6,-1,5,-1,0,-1,0,2,4,0,0,3,0,1,-2,-3,-5,6,-1,1,-7,2
1772819825.3941844,-1,7,9,-16,-4,-5,1,1,1,-2,6,-2,5,-1,1,0,1,3,4,1,0,3,0,1,-1,-3,-5,6,-1,1,-7,1
1772819825.3961375,-2,7,8,-16,-4,-5,1,1,1,-2,6,-2,5,-1,1,0,2,3,4,1,-1,3,-1,1,-1,-4,-5,5,0,0,-7,1
1772819825.3980906,-2,6,6,-15,-4,-5,0,2,1,-2,7,-2,5,-1,2,1,2,4,4,2,-1,3,-1,2,-1,-4,-5,4,0,0,-7,0
1772819825.4000437,-1,4,5,-14,-4,-5,0,3,1,-2,8,-2,5,-1,3,2,3,4,4,2,-2,2,-2,3,-1,-5,-6,4,0,-1,-7,0
1772819825.4019969,-1,3,4,-14,-4,-5,0,4,1,-1,9,-1,5,-1,4,2,4,4,4,2,-2,2,-3,4,-1,-6,-6,3,0,-1,-8,-1
1772819825.40395,-1,1,3,-14,-3,-5,0,5,2,0,10,-1,5,0,5,3,4,5,4,3,-3,1,-4,5,-2,-7,-7,3,0,-2,-8,-2
1772819825.405903,0,0,2,-15,-3,-4,1,6,2,0,10,0,5,0,6,3,4,5,4,3,-3,1,-5,6,-3,-8,-8,2,0,-2,-8,-3
1772819825.4078562,0,-2,2,-15,-3,-4,1,7,2,1,11,0,5,1,6,3,4,4,3,3,-4,1,-6,7,-3,-9,-9,2,1,-1,-8,-3
1772819825.4098094,0,-3,1,-16,-3,-4,2,7,3,2,11,1,6,1,7,3,4,4,3,3,-4,1,-6,8,-4,-9,-9,2,2,-1,-8,-4
1772819825.4117625,0,-5,1,-17,-3,-3,2,7,3,3,11,2,6,2,7,3,4,4,3,3,-3,1,-6,9,-5,-10,-10,2,4,-1,-9,-4
1772819825.4137156,1,-8,0,-18,-3,-3,3,7,3,3,11,2,6,3,7,3,4,3,3,3,-3,1,-6,9,-5,-10,-10,2,5,-1,-9,-4
1772819825.4156687,1,-10,0,-18,-4,-3,4,7,3,4,10,3,6,3,7,3,3,3,3,3,-3,1,-5,9,-5,-9,-10,2,6,0,-9,-4
1772819825.4176219,1,-12,0,-18,-4,-4,4,6,4,4,9,3,6,3,7,3,3,2,3,3,-2,1,-5,9,-4,-9,-10,2,6,0,-9,-3
1772819825.419575,1,-14,-1,-18,-4,-4,5,5,4,3,7,4,7,4,7,2,3,2,3,3,-2,1,-4,9,-4,-8,-9,2,6,-1,-9,-3
1772819825.421528,1,-15,-1,-17,-4,-4,5,5,4,3,6,4,7,4,7,2,2,2,4,4,-1,2,-3,8,-3,-7,-8,1,6,-1,-9,-3
1772819825.4234812,2,-16,-1,-15,-4,-5,5,4,4,3,4,4,7,5,7,2,2,1,4,4,-1,2,-2,7,-2,-6,-7,1,4,-2,-8,-2
1772819825.4254344,3,-17,-1,-14,-4,-5,6,4,4,2,3,4,7,5,7,2,2,1,4,3,-1,2,-1,5,-1,-5,-6,1,2,-3,-8,-2
1772819825.4273875,4,-16,0,-12,-4,-5,6,4,4,2,1,4,7,5,6,1,1,1,4,3,-1,2,-1,4,0,-5,-5,0,0,-4,-7,-1
1772819825.4293406,5,-15,1,-9,-4,-5,7,4,4,2,0,4,6,5,6,0,0,0,4,2,-1,2,-1,2,0,-4,-3,0,-2,-4,-7,-1
1772819825.4312937,7,-14,2,-7,-3,-4,7,5,4,2,-1,4,6,5,5,0,-1,0,3,1,-1,2,-1,0,1,-4,-2,0,-3,-5,-6,-1
1772819825.4332469,8,-12,4,-5,-3,-3,8,5,4,1,-2,4,5,5,4,-1,-2,-1,2,0,-2,2,-1,-1,0,-4,-2,0,-4,-6,-5,0
1772819825.4352,10,-10,7,-3,-2,-1,9,6,4,2,-3,4,5,4,3,-3,-4,-2,1,-2,-3,2,-2,-3,0,-4,-1,1,-4,-6,-5,0
1772819825.437153,11,-7,9,-1,-1,0,9,7,4,2,-3,3,4,4,1,-4,-5,-3,0,-3,-4,1,-2,-4,-1,-4,-1,1,-4,-6,-4,0
1772819825.4391062,12,-5,11,1,0,2,10,7,4,2,-3,3,3,3,0,-5,-6,-4,-1,-4,-4,1,-3,-5,-2,-4,-2,2,-2,-6,-3,-1
1772819825.4410594,13,-3,13,2,0,3,10,8,3,2,-3,2,2,2,-1,-6,-7,-5,-2,-5,-5,0,-3,-6,-3,-4,-2,3,0,-6,-2,-1
1772819825.4430125,12,-1,15,3,1,4,10,8,3,2,-3,2,2,2,-2,-6,-8,-6,-3,-6,-6,-1,-4,-6,-4,-5,-2,4,2,-5,-2,-2
1772819825.4449656,12,0,16,3,1,5,10,8,3,2,-2,2,1,1,-2,-6,-8,-6,-4,-6,-6,-1,-5,-5,-4,-5,-3,4,5,-4,-1,-2
1772819825.4469187,10,1,16,3,1,5,9,8,2,2,-2,1,1,1,-2,-5,-7,-6,-5,-5,-6,-2,-5,-4,-5,-5,-4,4,7,-4,-1,-3
1772819825.4488719,9,2,16,2,1,4,9,7,2,2,-1,1,1,1,-2,-4,-6,-5,-5,-5,-6,-2,-6,-3,-5,-6,-4,4,8,-3,-1,-4
1772819825.450825,6,2,15,1,0,4,8,6,2,2,0,1,1,1,-1,-3,-4,-4,-5,-4,-6,-3,-6,-2,-5,-6,-5,4,8,-2,-1,-4
1772819825.452778,4,2,14,0,0,3,7,5,2,1,0,1,1,1,0,-1,-2,-2,-5,-2,-6,-3,-6,-1,-5,-6,-6,4,7,-2,-2,-5
1772819825.4547312,2,2,12,0,-1,1,6,4,2,1,1,1,1,2,1,1,0,-1,-4,-1,-6,-3,-6,1,-4,-6,-6,3,6,-1,-2,-5
1772819825.4566844,-1,2,10,-1,-2,0,5,3,1,1,1,1,1,2,2,2,2,1,-3,1,-6,-3,-6,2,-4,-6,-6,3,5,-1,-2,-6
1772819825.4586375,-2,1,8,-1,-2,-1,4,1,1,0,2,1,1,2,3,3,4,3,-2,2,-5,-2,-6,3,-3,-6,-6,2,3,0,-3,-6
1772819825.4605906,-3,0,7,-1,-3,-1,3,0,1,0,2,1,1,2,4,4,5,4,-1,2,-5,-2,-5,4,-2,-5,-6,2,2,1,-3,-6
1772819825.4625437,-4,-1,5,0,-3,-2,3,-1,1,-1,2,0,1,1,3,4,6,5,0,2,-5,-2,-4,5,-1,-5,-6,2,1,1,-3,-5
1772819825.4644969,-3,-3,5,0,-3,-2,2,-2,0,-1,3,0,1,0,3,3,6,5,1,2,-5,-1,-3,5,0,-4,-5,2,1,2,-3,-5
1772819825.46645,-2,-5,5,1,-3,-2,2,-2,0,-1,3,-1,1,0,2,2,5,5,2,1,-5,-1,-3,6,0,-3,-5,2,1,4,-2,-4
1772819825.468403,0,-7,5,1,-3,-1,2,-2,0,-2,2,-2,0,-1,1,0,3,5,2,0,-5,-1,-2,6,1,-2,-4,2,2,5,-2,-4
1772819825.4703562,2,-8,6,1,-3,-1,2,-2,-1,-2,2,-2,0,-2,0,-1,2,4,2,-1,-5,-1,-1,6,2,-1,-4,3,4,6,-1,-3
1772819825.4723094,4,-10,7,0,-3,0,2,-2,-1,-2,2,-3,-1,-3,-1,-3,0,3,2,-2,-5,-1,-1,6,2,-1,-3,3,6,7,-1,-3
1772819825.4742625,7,-11,8,-1,-2,1,2,-1,-1,-2,2,-3,-1,-3,-2,-4,-1,2,2,-3,-5,-1,0,6,2,0,-3,3,8,7,0,-3
1772819825.4762156,9,-11,10,-3,-2,2,3,0,-2,-1,2,-3,-1,-3,-2,-5,-2,1,2,-4,-5,-2,0,6,2,0,-2,2,9,7,0,-3
1772819825.4781687,11,-10,11,-6,-2,2,3,0,-2,-1,1,-2,-1,-2,-2,-5,-3,0,1,-4,-6,-2,-1,5,1,0,-2,2,9,7,0,-3
1772819825.4801219,12,-9,13,-9,-2,3,4,1,-1,0,1,-1,-1,-1,-1,-5,-3,0,1,-4,-6,-2,-1,5,-1,-1,-3,1,8,5,0,-3
1772819825.482075,13,-7,14,-12,-2,4,4,1,-1,0,2,0,0,1,0,-4,-2,0,1,-4,-6,-3,-2,5,-2,-1,-3,-1,6,4,-1,-4
1772819825.484028,13,-4,15,-15,-3,4,4,2,-1,1,2,1,1,3,2,-2,-1,1,1,-3,-6,-3,-3,4,-4,-3,-4,-2,4,1,-2,-4
1772819825.4859812,12,-2,16,-17,-3,5,4,2,0,2,2,3,2,5,4,0,0,1,1,-2,-6,-3,-4,4,-6,-4,-5,-3,1,-2,-3,-4
1772819825.4879344,11,1,16,-19,-3,5,4,2,1,3,3,5,3,8,6,2,2,2,1,-2,-6,-3,-6,3,-8,-5,-6,-5,-2,-4,-4,-4
1772819825.4898875,10,2,15,-20,-4,6,4,3,2,4,3,6,4,10,9,4,3,3,1,-1,-6,-3,-7,2,-10,-7,-7,-6,-5,-7,-5,-4
1772819825.4918406,8,3,15,-20,-4,6,4,3,3,5,4,8,5,13,11,6,5,4,1,0,-6,-2,-8,1,-12,-8,-8,-7,-7,-9,-7,-4
1772819825.4937937,7,3,14,-19,-4,6,3,3,3,5,4,9,6,15,12,7,6,4,1,1,-6,-2,-9,0,-13,-9,-9,-7,-9,-11,-8,-4
1772819825.4957469,6,2,12,-18,-4,6,3,2,4,6,5,10,7,16,13,8,6,5,1,1,-6,-2,-9,-1,-14,-10,-10,-7,-9,-12,-8,-3
1772819825.4977,5,1,11,-16,-4,5,2,2,5,6,5,11,8,16,14,9,7,5,1,2,-6,-2,-9,-2,-14,-10,-10,-7,-9,-12,-9,-3
1772819825.499653,5,-2,9,-15,-4,5,2,2,5,6,5,11,8,16,14,9,7,5,1,2,-6,-1,-9,-2,-14,-10,-10,-6,-8,-12,-9,-2
1772819825.5016062,5,-4,7,-13,-4,4,2,3,5,5,5,10,8,15,13,8,6,4,1,2,-6,-1,-9,-2,-12,-10,-9,-5,-6,-12,-9,-2
1772819825.5035594,6,-7,5,-12,-4,4,2,3,5,5,4,9,7,14,12,7,6,4,1,2,-6,-1,-8,-3,-11,-9,-8,-4,-4,-10,-8,-2
1772819825.5055125,6,-9,4,-11,-4,3,2,3,4,4,3,8,7,11,11,6,5,3,1,2,-5,0,-7,-2,-9,-8,-7,-3,-2,-9,-7,-1
1772819825.5074656,7,-11,3,-11,-3,3,3,3,4,3,2,6,6,8,9,4,4,3,2,3,-5,0,-5,-2,-7,-7,-5,-2,0,-8,-6,-1
1772819825.5094187,8,-12,2,-12,-3,2,3,4,3,2,0,4,5,5,7,3,3,3,2,3,-4,0,-4,-1,-5,-5,-4,-1,2,-7,-5,-1
1772819825.5113719,9,-12,1,-13,-3,2,3,4,3,2,-1,3,5,2,4,1,3,3,3,3,-3,1,-2,0,-3,-4,-2,0,3,-6,-4,-1
1772819825.513325,10,-11,1,-15,-2,1,4,4,2,1,-3,1,4,-1,2,0,2,3,4,3,-2,1,-1,1,0,-3,0,0,4,-5,-4,-1
1772819825.515278,11,-10,1,-17,-2,1,4,4,2,0,-5,-1,3,-4,0,-1,2,3,4,4,-1,2,1,2,1,-2,1,0,4,-4,-3,-1
1772819825.5172312,11,-8,2,-18,-1,1,5,5,2,0,-7,-2,3,-7,-2,-3,1,3,5,4,0,2,2,3,3,-1,2,-1,4,-4,-2,0
1772819825.5191844,11,-5,2,-20,-1,1,5,5,2,0,-9,-4,2,-10,-4,-4,1,4,6,4,1,3,3,4,4,0,2,-2,4,-3,-2,0
1772819825.5211375,11,-2,3,-21,0,1,5,5,2,1,-10,-4,2,-11,-6,-5,1,4,6,3,2,3,4,4,4,1,3,-2,3,-3,-1,1
1772819825.5230906,11,1,3,-22,1,1,5,5,2,1,-11,-5,2,-13,-8,-6,0,4,6,3,2,3,4,5,4,1,3,-3,2,-2,0,1
1772819825.5250437,10,3,4,-23,1,1,5,6,3,2,-11,-5,2,-13,-10,-8,-1,4,6,2,2,4,4,5,4,2,2,-4,2,-2,0,2
1772819825.5269969,10,6,4,-24,2,2,5,6,3,3,-11,-4,2,-14,-11,-9,-2,4,6,2,2,4,4,4,3,2,2,-5,1,-1,1,3
1772819825.52895,9,8,5,-24,3,2,5,7,4,3,-11,-3,3,-13,-12,-9,-2,4,5,1,2,4,4,4,2,3,1,-6,0,-1,1,4
1772819825.530903,8,9,5,-24,4,2,5,7,5,4,-10,-2,3,-12,-13,-10,-3,3,5,0,2,4,4,3,1,3,1,-7,-1,0,2,5
1772819825.5328562,7,10,6,-24,5,2,4,8,6,5,-9,-1,4,-11,-14,-10,-4,3,4,-1,2,4,3,2,-1,3,1,-7,-2,0,2,6
1772819825.5348094,6,10,6,-25,5,2,4,8,6,6,-8,1,5,-9,-14,-10,-5,3,3,-2,1,4,3,1,-2,2,0,-8,-3,0,3,7
1772819825.5367625,4,10,7,-26,5,2,4,9,7,7,-6,3,5,-7,-13,-10,-5,3,3,-3,1,4,3,0,-4,2,0,-8,-5,-1,3,7
1772819825.5387156,3,9,8,-27,5,2,4,9,7,7,-4,5,6,-4,-13,-9,-6,3,3,-3,0,4,3,-1,-5,2,0,-8,-6,-1,2,7
1772819825.5406687,2,8,8,-28,4,2,4,8,7,8,-2,7,7,-2,-11,-8,-5,3,2,-3,0,3,3,-2,-5,1,0,-8,-8,-3,2,7
1772819825.5426219,0,7,8,-30,3,3,4,8,6,8,0,9,7,1,-10,-7,-5,3,2,-3,0,3,3,-3,-6,0,0,-7,-9,-4,1,6
1772819825.544575,-1,5,8,-31,2,3,4,7,6,8,3,11,8,3,-8,-5,-4,4,3,-3,0,3,3,-3,-5,-1,0,-7,-10,-6,0,5
1772819825.546528,-2,3,8,-32,0,3,4,6,5,8,5,12,8,6,-5,-3,-2,4,3,-2,0,3,3,-3,-5,-2,0,-6,-10,-7,-2,3
1772819825.5484812,-3,2,8,-33,-2,3,3,5,4,8,7,13,8,8,-3,-1,-1,5,3,-1,0,2,3,-3,-4,-3,1,-6,-10,-9,-3,2
1772819825.5504344,-4,0,8,-34,-4,2,3,3,3,7,8,14,7,10,0,1,1,5,3,0,0,1,2,-3,-3,-4,1,-6,-9,-11,-4,0
1772819825.5523875,-5,-1,7,-34,-5,2,2,2,2,7,10,14,7,11,2,3,3,6,4,1,1,1,2,-2,-1,-5,1,-5,-8,-12,-6,-2
1772819825.5543406,-5,-1,6,-34,-7,1,1,1,1,7,10,14,7,12,4,5,4,7,4,2,1,0,2,-2,0,-6,0,-5,-6,-13,-7,-3
1772819825.5562937,-5,-2,6,-33,-7,1,0,0,0,6,10,14,6,13,6,7,6,7,4,2,1,-1,1,-2,1,-6,0,-6,-4,-14,-7,-4
1772819825.5582469,-4,-2,5,-32,-7,0,-1,0,0,6,10,13,6,13,8,8,7,8,3,3,1,-2,0,-2,1,-7,0,-6,-2,-14,-7,-4
1772819825.5602,-3,-2,4,-30,-7,0,-1,0,-1,6,8,12,5,13,9,9,8,8,3,3,1,-2,0,-2,2,-7,-1,-7,1,-14,-7,-5
1772819825.562153,-1,-2,3,-28,-6,-1,-2,1,-1,5,6,11,5,12,9,10,9,8,3,2,1,-3,-1,-2,1,-7,-1,-8,2,-14,-7,-5
1772819825.5641062,0,-3,3,-26,-5,0,-2,1,-1,5,4,10,5,12,10,10,9,8,2,2,0,-3,-2,-3,1,-6,-2,-9,4,-13,-6,-4
1772819825.5660594,2,-3,2,-24,-3,0,-2,2,0,4,2,8,5,11,10,11,9,8,2,1,0,-3,-3,-3,0,-6,-2,-11,5,-12,-4,-4
1772819825.5680125,4,-4,2,-22,-1,1,-2,4,0,4,-1,7,5,10,10,10,9,8,2,1,0,-3,-4,-4,-2,-6,-3,-12,5,-11,-3,-3
1772819825.5699656,5,-5,2,-20,1,2,-1,5,1,3,-3,6,5,9,9,10,9,8,2,0,0,-3,-5,-5,-3,-5,-4,-13,5,-10,-1,-2
1772819825.5719187,7,-7,2,-18,3,3,-1,6,1,3,-5,5,5,8,8,9,8,8,1,-1,-1,-3,-5,-6,-5,-5,-4,-14,4,-9,0,-1
1772819825.5738719,8,-9,2,-17,5,4,0,7,2,2,-7,4,5,7,8,9,8,8,1,-2,-1,-2,-5,-7,-6,-4,-4,-14,3,-7,2,0
1772819825.575825,9,-10,3,-16,6,6,1,8,2,2,-8,3,5,6,7,8,7,7,1,-2,-2,-1,-5,-7,-7,-3,-4,-14,2,-6,3,1
1772819825.577778,9,-11,4,-16,7,7,2,9,3,1,-9,2,5,4,6,7,6,7,1,-3,-2,-1,-4,-8,-7,-2,-4,-14,1,-5,4,1
1772819825.5797312,9,-12,5,-16,8,7,3,9,3,1,-10,1,5,2,4,6,5,6,1,-3,-2,0,-4,-8,-7,-2,-4,-13,0,-4,5,2
1772819825.5816844,9,-11,6,-17,8,8,4,9,3,1,-10,0,5,0,3,5,4,5,1,-3,-3,0,-3,-9,-6,-1,-3,-12,-1,-3,6,3
1772819825.5836375,9,-10,8,-18,8,8,4,8,3,0,-10,-1,4,-2,2,4,3,4,1,-3,-3,1,-1,-9,-4,0,-1,-12,-1,-2,6,3
1772819825.5855906,9,-8,9,-20,8,8,5,8,3,0,-9,-2,4,-4,0,3,2,3,1,-3,-3,2,0,-9,-3,1,0,-11,-1,-1,6,4
1772819825.5875437,9,-5,11,-22,7,7,5,7,3,0,-9,-3,3,-7,-2,2,1,2,1,-3,-3,2,1,-9,-1,2,1,-10,-1,-1,6,4
1772819825.5894969,9,-1,13,-24,6,7,5,6,3,0,-9,-4,2,-9,-4,1,0,1,1,-3,-3,2,3,-9,2,3,3,-9,-1,-1,6,5
1772819825.59145,9,3,14,-26,5,6,5,5,3,0,-8,-5,2,-12,-5,-1,-1,0,1,-3,-2,3,4,-8,4,4,4,-9,0,-1,5,5
1772819825.593403,9,7,15,-27,5,6,5,4,2,0,-8,-5,1,-14,-7,-2,-2,-1,1,-2,-1,3,5,-8,5,4,5,-9,0,-1,5,5
1772819825.5953562,10,11,16,-28,4,5,5,4,2,1,-8,-6,0,-16,-9,-4,-3,-1,0,-2,0,3,6,-7,6,5,6,-9,0,-1,5,6
1772819825.5973094,10,14,17,-28,4,5,5,4,2,1,-8,-6,-1,-17,-11,-6,-4,-2,0,-2,1,3,7,-6,7,5,7,-9,0,-1,4,6
1772819825.5992625,10,17,17,-27,4,4,5,4,2,2,-9,-6,-1,-18,-13,-7,-6,-3,0,-2,2,3,7,-5,7,6,7,-9,0,-2,4,7
1772819825.6012156,11,18,16,-26,4,4,5,4,2,3,-9,-6,-2,-18,-14,-9,-7,-4,0,-2,3,3,8,-4,6,6,7,-9,-1,-2,4,7
1772819825.6031687,11,19,15,-24,5,4,5,5,2,3,-9,-5,-2,-17,-15,-10,-8,-5,0,-3,4,3,8,-3,6,6,7,-9,-1,-3,4,8
1772819825.6051219,11,19,14,-21,5,4,5,6,3,4,-9,-4,-2,-16,-15,-11,-9,-5,0,-3,5,3,7,-3,4,6,6,-9,-1,-3,4,8
1772819825.607075,11,18,12,-19,6,3,5,7,3,5,-9,-3,-2,-14,-15,-11,-10,-5,-1,-4,5,3,7,-3,3,6,6,-10,-1,-4,4,8
1772819825.609028,10,16,10,-16,6,3,4,9,3,6,-9,-1,-1,-12,-15,-11,-10,-6,-1,-5,5,3,6,-3,1,5,5,-10,-1,-5,3,8
1772819825.6109812,10,14,8,-13,6,2,4,9,4,7,-8,1,-1,-9,-14,-11,-10,-5,-1,-5,5,3,6,-3,-1,5,4,-10,-1,-6,3,7
1772819825.6129344,9,12,6,-11,6,1,4,10,4,7,-7,2,0,-7,-12,-9,-9,-4,0,-5,5,3,5,-4,-2,4,3,-10,0,-7,3,6
1772819825.6148875,7,9,4,-10,6,0,3,10,4,7,-6,4,1,-3,-10,-8,-8,-3,0,-5,5,3,4,-5,-4,4,2,-10,0,-9,2,6
1772819825.6168406,6,7,2,-9,5,-1,2,10,4,7,-5,6,2,0,-7,-5,-6,-2,1,-5,4,3,3,-6,-6,3,0,-11,0,-10,2,5
1772819825.6187937,4,5,0,-9,4,-2,1,9,4,7,-3,7,3,3,-4,-3,-4,0,2,-4,4,3,2,-7,-7,1,-1,-11,0,-12,1,3
1772819825.6207469,3,3,-1,-9,3,-3,0,7,4,6,-2,9,5,7,0,1,-1,2,3,-3,3,3,1,-7,-9,0,-2,-11,0,-13,-1,2
1772819825.6227,1,2,-2,-10,2,-4,-1,6,4,6,0,10,6,10,3,4,2,5,4,-2,3,3,0,-8,-10,-2,-3,-11,-1,-15,-2,1
1772819825.624653,0,0,-3,-11,0,-5,-2,4,3,5,2,12,7,13,7,8,5,7,5,-1,2,3,0,-8,-11,-3,-4,-12,-2,-16,-4,0
1772819825.6266062,-1,-1,-4,-12,-2,-5,-3,2,3,4,3,13,9,16,10,11,8,9,6,1,2,3,-1,-7,-12,-5,-5,-12,-4,-17,-5,-2
1772819825.6285594,-2,-3,-5,-13,-4,-5,-3,0,2,3,5,14,10,19,13,14,11,11,7,2,1,2,-2,-7,-12,-7,-5,-13,-7,-18,-7,-3
1772819825.6305125,-2,-4,-5,-15,-5,-5,-4,-2,2,3,6,15,11,21,16,17,13,13,8,3,1,2,-3,-6,-12,-8,-6,-14,-10,-19,-9,-3
1772819825.6324656,-2,-5,-5,-16,-7,-4,-4,-3,2,2,7,15,12,22,18,19,15,14,8,3,0,2,-3,-5,-11,-9,-6,-15,-13,-20,-10,-4
1772819825.6344187,-2,-7,-5,-17,-8,-3,-4,-4,2,2,8,16,12,23,20,21,16,15,8,3,0,2,-3,-4,-10,-10,-6,-15,-16,-19,-11,-4
1772819825.6363719,-1,-9,-5,-18,-8,-3,-3,-4,2,2,8,16,13,23,21,22,17,15,8,3,0,2,-3,-4,-9,-10,-6,-16,-18,-19,-12,-4
1772819825.638325,-1,-10,-4,-19,-9,-2,-3,-3,2,2,9,16,13,23,22,23,17,15,8,3,0,2,-3,-3,-8,-10,-5,-17,-21,-18,-12,-4
1772819825.640278,0,-12,-4,-21,-9,-1,-2,-3,2,2,9,15,12,22,22,23,17,15,8,2,0,2,-3,-3,-7,-10,-5,-17,-22,-17,-12,-4
1772819825.6422312,0,-13,-3,-22,-8,0,-1,-2,2,2,8,14,12,21,21,23,17,14,7,1,0,2,-3,-3,-6,-9,-4,-17,-23,-15,-12,-3
1772819825.6441844,1,-14,-2,-23,-8,0,0,-1,1,2,8,13,11,19,20,22,16,14,7,1,0,2,-2,-3,-5,-8,-4,-16,-23,-13,-11,-3
1772819825.6461375,1,-14,-2,-25,-7,0,0,0,1,2,7,12,10,16,19,21,15,13,6,1,0,2,-2,-3,-4,-7,-3,-15,-21,-12,-11,-3
1772819825.6480906,2,-13,-1,-26,-6,0,1,1,1,3,7,10,8,13,17,20,14,12,6,0,0,2,-1,-3,-3,-6,-3,-13,-19,-10,-10,-2
1772819825.6500437,3,-12,0,-28,-6,0,2,2,0,3,6,9,7,10,15,19,13,11,5,1,1,2,0,-3,-3,-6,-2,-11,-16,-9,-9,-2
1772819825.6519969,3,-10,1,-30,-5,-1,2,2,0,3,6,7,5,6,12,17,12,10,5,1,1,2,0,-2,-3,-5,-2,-9,-12,-8,-9,-2
1772819825.65395,4,-7,2,-32,-5,-1,3,3,-1,3,5,5,3,3,10,15,11,9,4,1,1,2,1,-2,-3,-4,-1,-6,-8,-7,-8,-2
1772819825.655903,5,-3,3,-34,-4,-2,4,2,-1,3,5,3,1,0,7,13,10,8,3,2,1,2,2,-1,-4,-3,0,-3,-4,-7,-7,-2
1772819825.6578562,6,1,4,-35,-4,-2,4,2,-2,3,4,2,0,-3,5,11,9,7,3,3,1,1,2,0,-4,-2,1,0,0,-8,-6,-2
1772819825.6598094,7,5,5,-36,-4,-2,5,2,-2,3,3,0,-2,-6,3,9,8,5,2,3,1,1,2,1,-4,-2,2,2,3,-8,-6,-2
1772819825.6617625,8,9,6,-36,-4,-2,6,2,-2,3,2,-1,-3,-9,0,7,7,4,2,4,0,1,2,2,-4,-1,3,3,5,-9,-5,-2
1772819825.6637156,9,13,6,-36,-4,-2,6,2,-2,3,1,-2,-3,-11,-1,5,6,3,1,4,0,1,2,3,-5,-1,4,4,6,-10,-5,-1
1772819825.6656687,9,17,6,-35,-3,-2,7,2,-2,2,0,-3,-3,-12,-3,4,5,3,1,4,0,1,2,4,-5,0,5,4,6,-11,-4,-1
1772819825.6676219,10,19,6,-33,-3,-1,7,3,-1,2,-1,-4,-3,-13,-4,3,4,2,1,5,-1,2,2,4,-5,0,5,3,5,-11,-4,0
1772819825.669575,10,20,6,-31,-2,-1,7,3,-1,2,-3,-4,-2,-14,-4,2,3,2,2,5,-1,2,2,4,-5,0,5,2,4,-11,-3,0
1772819825.671528,9,20,6,-28,-2,0,7,4,0,1,-4,-4,-1,-15,-5,2,3,2,2,5,-1,3,2,4,-5,0,5,0,2,-11,-3,1
1772819825.6734812,9,20,5,-25,-1,0,7,6,1,1,-5,-5,0,-15,-5,1,3,2,2,5,-1,3,2,4,-5,1,5,-2,-1,-11,-3,2
1772819825.6754344,8,18,5,-22,0,0,7,7,2,1,-6,-5,1,-15,-5,1,2,2,3,4,-1,4,3,3,-5,1,5,-4,-3,-10,-3,2
1772819825.6773875,8,16,4,-19,1,1,6,8,3,1,-6,-4,3,-15,-6,1,2,2,3,4,0,5,3,3,-5,1,4,-6,-5,-9,-2,3
1772819825.6793406,7,13,3,-17,2,1,5,9,3,1,-7,-4,4,-14,-6,0,1,2,4,3,0,5,3,2,-6,1,4,-7,-6,-8,-2,4
1772819825.6812937,6,10,3,-15,3,1,4,11,4,1,-7,-3,5,-14,-7,0,1,2,4,3,0,6,3,2,-6,1,3,-8,-7,-7,-1,4
1772819825.6832469,6,7,2,-14,3,1,3,11,4,1,-6,-3,6,-13,-7,-1,0,2,4,2,1,6,3,2,-6,2,3,-8,-7,-6,-1,5
1772819825.6852,6,4,1,-13,4,0,2,12,5,1,-6,-2,6,-12,-8,-1,-1,2,4,1,1,6,4,2,-6,2,3,-8,-7,-5,0,5
1772819825.687153,5,2,0,-13,4,0,0,12,5,1,-5,-1,7,-11,-8,-2,-2,1,4,0,1,6,4,2,-6,2,3,-7,-6,-5,0,6
1772819825.6891062,5,0,-1,-14,5,-1,-1,11,5,2,-4,0,7,-10,-8,-2,-3,1,4,-1,1,6,4,2,-6,3,4,-6,-5,-5,1,6
1772819825.6910594,4,-1,-3,-16,5,-2,-3,11,5,2,-2,2,8,-8,-8,-3,-3,2,4,-2,0,6,5,2,-5,3,4,-5,-3,-6,1,6
1772819825.6930125,4,-2,-4,-18,4,-3,-4,10,5,2,-1,3,8,-5,-7,-2,-3,2,4,-3,0,6,5,2,-5,3,5,-5,-2,-7,1,6
1772819825.6949656,3,-3,-5,-20,4,-4,-5,8,5,2,1,5,8,-2,-6,-2,-3,2,5,-4,-1,6,5,2,-5,4,5,-4,-2,-8,2,6
1772819825.6969187,2,-3,-6,-22,3,-5,-7,7,5,2,2,6,9,1,-4,-1,-2,3,5,-4,-1,6,5,2,-4,4,5,-4,-2,-10,1,6
1772819825.6988719,0,-3,-7,-24,3,-6,-8,6,5,2,4,8,9,4,-1,1,-1,4,6,-5,-2,6,5,1,-4,4,5,-5,-3,-11,1,6
1772819825.700825,-1,-3,-8,-25,2,-7,-9,5,5,1,5,9,10,7,1,3,0,5,6,-5,-2,6,5,0,-3,4,5,-6,-4,-12,1,5
1772819825.702778,-3,-3,-9,-25,2,-8,-10,5,5,1,6,10,10,10,4,5,2,7,6,-4,-3,6,4,-1,-3,4,5,-7,-6,-13,0,5
1772819825.7047312,-4,-3,-9,-25,1,-9,-11,4,4,1,7,12,10,13,6,7,4,8,7,-4,-3,6,4,-2,-3,3,4,-8,-8,-14,0,4
1772819825.7066844,-5,-4,-9,-24,1,-9,-12,5,4,1,7,13,10,16,9,10,6,9,7,-4,-3,5,3,-3,-3,3,4,-9,-11,-15,-1,4
1772819825.7086375,-6,-5,-9,-23,0,-9,-13,6,4,0,7,13,10,18,11,12,7,10,7,-3,-3,5,2,-4,-4,3,3,-10,-13,-15,-1,3
1772819825.7105906,-7,-7,-9,-22,0,-9,-13,7,4,0,7,14,10,20,13,14,9,10,7,-3,-4,4,1,-5,-5,2,2,-11,-16,-14,-2,2
1772819825.7125437,-7,-9,-8,-20,0,-8,-13,8,3,1,7,14,10,21,15,15,10,11,6,-2,-4,3,0,-6,-6,1,1,-11,-17,-14,-3,1
1772819825.7144969,-7,-11,-8,-18,0,-7,-13,9,3,1,6,14,10,21,16,16,11,11,6,-2,-4,3,-1,-6,-7,1,0,-11,-18,-14,-4,1
1772819825.71645,-6,-12,-6,-16,0,-6,-12,10,3,1,6,14,10,21,16,17,11,11,5,-2,-4,2,-2,-7,-8,0,-1,-10,-18,-13,-4,0
1772819825.718403,-5,-14,-5,-15,-1,-4,-12,11,2,1,5,14,9,21,17,18,12,11,5,-1,-3,2,-3,-7,-10,-1,-2,-10,-17,-13,-5,-1
1772819825.7203562,-3,-14,-4,-14,-1,-2,-11,12,2,1,5,14,8,20,17,18,12,11,5,-1,-3,1,-4,-7,-11,-2,-2,-9,-15,-13,-6,-1
1772819825.7223094,-2,-15,-3,-14,-2,0,-10,12,1,1,4,13,8,19,17,18,12,10,4,0,-3,1,-4,-7,-12,-3,-3,-8,-13,-13,-6,-2
1772819825.7242625,0,-14,-2,-14,-2,1,-9,11,1,2,4,12,7,17,16,18,12,10,4,1,-3,1,-4,-7,-13,-4,-4,-8,-10,-13,-7,-2
1772819825.7262156,1,-13,-1,-14,-3,2,-8,10,0,1,4,11,7,15,16,17,12,9,4,1,-2,1,-4,-7,-14,-4,-4,-7,-7,-13,-7,-3
1772819825.7281687,2,-12,0,-14,-3,3,-7,9,0,1,3,9,6,13,15,16,12,9,5,2,-1,1,-3,-6,-14,-4,-4,-7,-5,-13,-8,-2
1772819825.7301219,3,-10,1,-13,-4,3,-6,8,-1,1,3,7,5,10,13,15,11,8,5,2,0,1,-3,-5,-14,-4,-4,-7,-3,-13,-8,-2
1772819825.732075,4,-9,1,-13,-4,2,-5,7,-1,1,2,6,5,8,12,14,10,8,6,3,1,1,-2,-4,-13,-4,-4,-7,-2,-13,-8,-1
1772819825.734028,4,-7,1,-12,-3,2,-4,6,-2,0,2,4,4,5,10,12,9,7,6,3,2,2,0,-3,-12,-3,-3,-7,-1,-12,-7,-1
1772819825.7359812,5,-5,1,-11,-3,1,-4,5,-2,0,1,1,4,1,8,10,8,6,7,4,3,2,1,-3,-11,-2,-3,-7,-1,-11,-7,1
1772819825.7379344,5,-4,0,-10,-2,-1,-3,5,-2,0,0,-1,3,-2,6,7,7,6,7,4,4,3,2,-2,-9,0,-2,-6,-1,-10,-6,2
1772819825.7398875,5,-3,0,-9,-1,-2,-3,5,-2,-1,-1,-2,3,-5,3,5,6,5,8,4,5,3,3,-1,-8,1,-1,-6,-2,-8,-5,3
1772819825.7418406,5,-2,-1,-7,0,-3,-2,5,-1,-1,-3,-4,3,-8,1,3,5,4,8,4,6,4,4,-1,-6,2,0,-5,-3,-7,-4,4
1772819825.7437937,6,-1,-1,-6,1,-4,-2,6,-1,0,-4,-5,2,-10,-2,0,3,4,8,4,6,4,5,-1,-5,3,1,-5,-5,-5,-3,5
1772819825.7457469,6,-1,-2,-6,2,-4,-1,7,0,0,-5,-6,2,-12,-4,-2,2,3,8,4,7,5,6,-2,-4,3,2,-4,-6,-4,-2,6
1772819825.7477,7,0,-2,-5,2,-4,0,8,0,1,-5,-6,2,-14,-5,-3,1,2,8,3,7,5,6,-2,-3,4,3,-3,-7,-2,-2,6
1772819825.749653,7,0,-2,-5,2,-3,1,9,1,2,-5,-6,2,-14,-7,-5,-1,2,8,3,7,5,6,-3,-3,3,3,-3,-8,-2,-2,6
1772819825.7516062,7,1,-1,-5,2,-3,2,10,1,3,-5,-5,2,-14,-8,-5,-1,1,7,2,6,5,6,-3,-3,3,3,-2,-9,-1,-2,6
1772819825.7535594,7,1,-1,-5,2,-1,4,11,2,4,-5,-4,2,-14,-8,-6,-2,1,7,1,5,5,5,-4,-3,2,3,-2,-9,-1,-3,6
1772819825.7555125,7,2,-1,-5,2,0,5,12,3,6,-4,-2,3,-12,-8,-6,-3,0,6,0,4,4,5,-5,-3,1,2,-2,-9,-2,-3,5
1772819825.7574656,7,2,0,-5,2,1,6,12,3,7,-3,0,3,-11,-7,-6,-4,0,5,-1,3,4,4,-5,-4,0,1,-3,-9,-2,-4,5
1772819825.7594187,7,3,0,-5,1,2,7,13,4,8,-1,2,3,-9,-7,-6,-4,0,4,-2,2,4,3,-5,-5,-1,0,-3,-9,-3,-5,4
1772819825.7613719,6,2,1,-5,1,3,7,13,5,9,0,4,3,-6,-6,-5,-5,-1,4,-3,1,4,2,-5,-5,-2,-1,-4,-9,-4,-6,4
1772819825.763325,5,1,1,-4,1,4,7,13,5,10,1,5,3,-4,-4,-5,-5,-1,3,-4,0,3,1,-5,-6,-3,-3,-5,-8,-5,-6,4
1772819825.765278,4,0,1,-3,1,5,7,13,6,10,2,7,3,-2,-3,-4,-5,-1,2,-5,-1,3,1,-5,-6,-3,-4,-6,-8,-6,-6,4
1772819825.7672312,2,-2,0,-2,1,5,7,13,6,10,3,8,3,1,-2,-3,-5,-1,2,-5,-2,3,0,-5,-7,-3,-4,-7,-8,-6,-7,4
1772819825.7691844,1,-5,0,-1,1,5,6,13,6,10,4,9,3,3,0,-2,-4,-1,2,-6,-2,3,0,-4,-7,-3,-5,-8,-8,-6,-6,4
1772819825.7711375,0,-8,-1,0,1,4,5,13,6,10,4,9,4,4,1,-1,-4,-1,2,-6,-2,3,0,-4,-7,-2,-5,-8,-8,-6,-6,5
1772819825.7730906,-1,-10,-2,1,1,3,4,12,6,9,4,10,4,6,2,-1,-3,0,2,-7,-2,3,0,-4,-6,-2,-5,-8,-8,-6,-5,5
1772819825.7750437,-2,-12,-2,2,2,2,3,11,5,8,4,10,3,7,3,0,-3,0,2,-6,-2,3,0,-4,-6,-1,-5,-8,-8,-5,-5,5
1772819825.7769969,-3,-14,-3,3,2,1,2,11,5,7,4,9,3,8,4,1,-2,1,3,-6,-2,3,1,-4,-6,-1,-5,-8,-8,-5,-4,5
1772819825.77895,-4,-15,-4,3,2,0,1,10,4,6,3,9,3,8,5,2,-1,2,3,-6,-2,2,1,-3,-6,0,-5,-7,-8,-5,-4,5
1772819825.780903,-4,-15,-4,3,1,-1,0,9,3,6,3,9,3,9,6,3,1,3,4,-5,-1,2,1,-3,-7,-1,-5,-7,-8,-4,-4,4
1772819825.7828562,-4,-14,-4,2,1,-2,-1,8,2,5,3,9,3,9,7,4,2,4,5,-4,-1,2,1,-3,-7,-1,-6,-7,-7,-4,-4,4
1772819825.7848094,-5,-13,-4,1,1,-3,-2,7,1,4,3,8,2,10,8,6,4,5,6,-3,-1,2,1,-3,-8,-1,-6,-8,-7,-4,-4,3
1772819825.7867625,-5,-12,-4,0,0,-4,-3,6,0,4,3,8,2,10,9,7,5,6,7,-2,-1,2,1,-3,-9,-2,-6,-8,-7,-4,-5,2
1772819825.7887156,-5,-10,-4,-1,0,-5,-3,5,0,4,3,8,2,10,10,9,7,7,7,-1,0,2,1,-3,-9,-3,-7,-9,-6,-5,-5,1
1772819825.7906687,-4,-9,-4,-2,-1,-5,-4,5,-1,3,3,8,2,11,12,10,9,8,8,0,0,2,1,-3,-10,-3,-8,-10,-6,-6,-6,1
1772819825.7926219,-4,-9,-4,-3,-1,-6,-4,4,-1,3,3,8,2,11,13,12,10,9,9,1,-1,2,1,-3,-11,-4,-8,-12,-6,-7,-6,0
1772819825.794575,-4,-8,-4,-4,-2,-6,-5,3,-1,3,4,8,2,12,14,13,12,11,10,2,-1,2,1,-4,-12,-4,-9,-13,-7,-9,-7,0
1772819825.796528,-3,-9,-3,-5,-2,-7,-6,3,0,2,4,8,3,12,15,14,13,12,10,2,-1,3,1,-4,-12,-4,-9,-14,-7,-10,-7,0
1772819825.7984812,-3,-9,-3,-5,-2,-6,-6,2,0,2,4,8,3,12,16,15,14,12,10,3,-1,3,1,-5,-12,-4,-9,-14,-7,-12,-7,1
1772819825.8004344,-2,-10,-2,-6,-2,-6,-7,1,0,1,4,8,4,12,16,15,15,13,11,3,-1,4,1,-6,-11,-4,-9,-15,-8,-13,-7,1
1772819825.8023875,-1,-10,-2,-7,-2,-5,-7,0,1,1,4,7,4,12,16,15,15,13,11,3,-2,4,1,-7,-10,-3,-8,-15,-8,-14,-7,2
1772819825.8043406,0,-9,-1,-8,-2,-4,-7,-1,1,0,4,6,4,11,15,14,14,13,10,2,-2,5,1,-8,-9,-2,-7,-14,-7,-14,-6,2
1772819825.8062937,0,-8,0,-10,-2,-3,-7,-2,1,0,4,5,4,10,14,13,13,12,10,1,-2,5,2,-9,-7,-2,-6,-13,-6,-13,-5,3
1772819825.8082469,1,-6,2,-11,-2,-1,-7,-3,1,-1,3,4,4,9,12,11,11,11,9,1,-2,5,2,-10,-6,-1,-5,-11,-5,-12,-4,3
1772819825.8102,1,-4,3,-12,-2,0,-6,-4,1,-2,2,3,4,7,10,9,9,9,8,-1,-2,5,3,-10,-4,0,-4,-10,-4,-10,-3,3
1772819825.812153,1,-1,4,-13,-1,1,-6,-5,1,-2,0,1,3,5,8,7,6,7,7,-2,-2,5,3,-9,-2,1,-3,-8,-2,-8,-1,3
1772819825.8141062,1,3,5,-14,-1,2,-5,-5,1,-3,-1,0,3,2,5,4,4,5,6,-3,-2,4,4,-9,0,3,-2,-6,1,-5,0,4
1772819825.8160594,1,6,6,-14,0,3,-4,-5,0,-3,-3,-2,2,0,3,2,1,3,5,-4,-2,4,5,-8,1,4,-1,-5,3,-2,2,4
1772819825.8180125,1,9,6,-14,1,4,-3,-4,0,-3,-5,-3,1,-3,0,0,-1,1,4,-5,-2,4,5,-7,2,5,1,-4,4,0,3,4
1772819825.8199656,1,11,6,-14,2,4,-2,-3,0,-4,-8,-5,0,-5,-2,-2,-3,-1,3,-6,-2,4,6,-6,3,6,2,-3,6,3,5,4
1772819825.8219187,1,13,5,-13,4,3,-2,-2,0,-4,-10,-6,0,-7,-4,-4,-5,-3,3,-6,-2,4,7,-5,4,7,3,-2,7,4,6,5
1772819825.8238719,1,13,4,-12,5,3,-1,0,0,-4,-12,-7,-1,-9,-5,-5,-6,-4,2,-7,-2,4,7,-4,4,8,4,-2,7,6,8,5
1772819825.825825,1,12,3,-10,6,2,-1,1,1,-4,-14,-7,-1,-10,-6,-5,-7,-5,1,-7,-2,4,8,-3,5,9,5,-2,7,6,9,6
1772819825.827778,2,10,1,-8,7,2,-1,3,1,-4,-16,-8,-2,-11,-7,-5,-7,-6,1,-7,-2,4,8,-2,5,10,6,-2,7,6,9,6
1772819825.8297312,3,7,0,-5,8,2,0,4,1,-4,-17,-8,-2,-12,-7,-5,-7,-6,1,-7,-2,4,8,-2,5,10,7,-3,6,5,10,7
1772819825.8316844,5,4,-1,-2,8,1,0,5,2,-4,-18,-8,-2,-12,-7,-5,-7,-6,0,-7,-2,4,7,-2,6,10,7,-3,5,4,9,7
1772819825.8336375,6,1,-2,1,8,1,0,5,2,-4,-19,-7,-2,-12,-7,-4,-6,-5,0,-6,-2,4,7,-2,6,10,8,-4,4,3,9,7
1772819825.8355906,7,-2,-2,4,8,1,0,5,2,-4,-18,-7,-2,-11,-6,-3,-5,-5,0,-6,-2,4,6,-1,6,10,8,-5,4,1,8,7
1772819825.8375437,9,-5,-2,7,7,1,0,5,2,-4,-17,-7,-2,-11,-6,-3,-4,-4,-1,-6,-2,3,6,-1,7,9,8,-6,3,0,7,7
1772819825.8394969,10,-6,-2,9,6,1,0,4,2,-4,-16,-6,-2,-10,-5,-2,-4,-3,-1,-5,-2,3,5,-1,7,9,8,-6,3,-1,6,6
1772819825.84145,10,-7,-2,10,5,1,1,3,2,-3,-14,-5,-3,-9,-4,-2,-3,-3,-1,-5,-2,2,4,-1,7,8,7,-7,2,-2,5,5
1772819825.843403,10,-7,-1,12,4,1,1,2,1,-2,-11,-5,-3,-8,-4,-1,-2,-2,-2,-4,-2,1,3,-1,7,7,6,-7,2,-2,4,4
1772819825.8453562,10,-7,-1,12,2,0,2,1,1,-2,-8,-4,-3,-7,-3,-1,-2,-2,-2,-4,-1,1,2,0,7,6,6,-7,1,-2,3,3
1772819825.8473094,10,-7,-1,13,1,0,2,0,0,-1,-5,-3,-4,-5,-2,-1,-1,-2,-2,-3,-1,0,1,0,7,4,5,-7,0,-1,2,2
1772819825.8492625,9,-6,-1,13,0,0,3,-1,0,0,-3,-3,-4,-4,-2,-1,-1,-2,-2,-3,0,-1,1,0,7,3,4,-7,-1,-1,1,1
1772819825.8512156,7,-5,-1,13,0,-1,3,-1,-1,1,0,-2,-4,-3,-1,-1,-1,-2,-2,-2,1,-2,0,1,6,2,3,-6,-2,0,0,0
1772819825.8531687,6,-4,-1,13,-1,-2,3,-2,-2,1,2,-1,-4,-2,0,-1,0,-2,-2,-1,2,-2,0,2,5,1,2,-6,-3,0,-1,-1
1772819825.8551219,4,-4,-2,13,-2,-2,3,-2,-2,2,4,0,-4,0,0,-1,0,-1,-2,-1,3,-2,0,2,4,0,0,-5,-4,1,-1,-2
1772819825.857075,2,-3,-2,14,-2,-3,2,-2,-2,2,5,1,-4,1,1,-1,0,-1,-1,0,4,-2,0,3,3,-1,-1,-5,-5,1,-2,-3
1772819825.859028,0,-3,-2,14,-2,-3,1,-2,-3,2,6,1,-4,3,2,0,1,-1,0,1,5,-2,0,4,2,-2,-2,-4,-5,0,-3,-3
1772819825.8609812,-2,-3,-2,14,-3,-4,-1,-3,-3,2,6,2,-3,4,3,0,1,0,1,1,6,-2,0,5,2,-2,-3,-4,-5,-1,-3,-4
1772819825.8629344,-4,-3,-2,15,-3,-4,-2,-3,-3,2,6,2,-3,5,4,1,2,1,2,2,7,-1,1,6,1,-3,-4,-4,-5,-2,-3,-4
1772819825.8648875,-5,-3,-2,15,-3,-5,-5,-3,-3,1,5,2,-2,6,5,2,3,2,3,2,7,-1,1,7,0,-3,-5,-5,-4,-3,-4,-4
1772819825.8668406,-6,-3,-1,16,-3,-5,-7,-3,-4,0,4,2,-2,7,6,3,4,3,3,3,7,-1,1,7,0,-3,-5,-5,-3,-5,-4,-4
1772819825.8687937,-7,-3,-1,17,-3,-6,-9,-4,-4,-1,3,2,-2,7,7,4,5,3,4,3,7,0,1,8,0,-3,-6,-5,-2,-7,-4,-4
1772819825.8707469,-7,-3,-1,18,-3,-6,-10,-4,-4,-2,1,1,-2,7,7,5,6,4,5,3,7,0,2,8,0,-3,-5,-6,-1,-8,-3,-4
1772819825.8727,-7,-3,-1,19,-3,-7,-12,-5,-5,-3,0,1,-2,7,8,6,7,5,5,3,7,0,2,7,1,-2,-5,-6,0,-9,-3,-4
1772819825.874653,-7,-3,-1,20,-3,-7,-12,-5,-5,-4,-1,0,-3,7,8,7,8,5,5,4,6,-1,2,7,1,-2,-4,-6,0,-9,-3,-4
1772819825.8766062,-6,-3,-1,22,-2,-7,-12,-5,-6,-5,-2,-1,-4,6,9,7,8,6,5,4,6,-1,1,6,2,-1,-3,-6,0,-8,-2,-3
1772819825.8785594,-5,-3,-1,25,-2,-7,-12,-5,-7,-6,-3,-3,-4,5,9,8,9,5,4,4,5,-2,1,5,2,-1,-3,-5,0,-7,-2,-3
1772819825.8805125,-4,-3,-1,27,-2,-6,-11,-5,-7,-6,-3,-4,-5,4,9,8,9,5,4,4,4,-3,0,3,3,-1,-2,-4,0,-6,-1,-3
1772819825.8824656,-3,-3,-2,30,-2,-6,-10,-5,-8,-7,-3,-5,-6,3,8,8,9,5,3,4,4,-4,0,2,3,-1,-1,-3,-1,-4,-1,-4
1772819825.8844187,-2,-4,-2,32,-2,-5,-8,-5,-9,-7,-3,-6,-7,1,8,7,9,4,2,4,3,-4,-1,1,3,-1,-1,-1,-1,-1,-1,-4
1772819825.8863719,-1,-5,-1,35,-3,-3,-6,-4,-9,-6,-3,-6,-7,0,7,7,8,4,1,4,2,-5,-2,1,3,-2,-1,1,-1,1,-1,-5
1772819825.888325,0,-6,-1,37,-3,-2,-5,-4,-9,-6,-2,-7,-8,-1,7,6,8,3,0,4,2,-6,-3,0,3,-3,-1,2,-1,4,-2,-6
1772819825.890278,1,-7,0,39,-4,0,-3,-3,-9,-5,-2,-7,-8,-2,6,5,7,2,-1,3,1,-7,-3,0,3,-3,-1,4,0,6,-2,-7
1772819825.8922312,2,-8,1,40,-4,2,-2,-2,-9,-5,-2,-8,-8,-4,5,4,5,1,-1,3,1,-7,-4,1,3,-4,-2,6,1,8,-3,-7
1772819825.8941844,2,-9,2,41,-5,3,-1,-2,-9,-4,-2,-8,-8,-5,3,3,4,0,-2,2,0,-8,-4,1,3,-5,-2,8,3,9,-3,-8
1772819825.8961375,2,-9,4,41,-5,5,0,-1,-8,-3,-3,-8,-8,-6,2,1,2,-1,-3,1,0,-8,-4,1,3,-5,-2,9,5,10,-3,-8
1772819825.8980906,2,-8,5,40,-5,6,1,0,-7,-3,-3,-8,-8,-7,0,0,1,-2,-3,0,-1,-8,-4,2,3,-5,-2,10,7,10,-3,-8
1772819825.9000437,2,-7,7,39,-5,7,1,1,-7,-2,-3,-7,-7,-8,-1,-2,-1,-4,-4,-1,-2,-7,-4,2,3,-4,-2,11,8,11,-3,-8
1772819825.9019969,2,-6,9,38,-4,7,1,1,-6,-2,-4,-7,-7,-9,-3,-3,-3,-5,-4,-3,-3,-7,-3,2,3,-3,-2,11,9,10,-3,-7
1772819825.90395,2,-3,10,36,-4,7,1,2,-5,-1,-4,-7,-6,-9,-4,-4,-5,-6,-5,-4,-3,-6,-2,1,3,-2,-1,11,8,9,-2,-6
1772819825.905903,1,-1,11,35,-3,7,1,2,-4,-1,-4,-6,-6,-10,-5,-5,-6,-7,-5,-5,-4,-5,-2,1,3,-1,0,9,7,8,-1,-5
1772819825.9078562,1,1,12,33,-2,6,2,3,-3,-1,-4,-6,-5,-10,-6,-6,-7,-7,-5,-6,-4,-4,-1,-1,3,1,0,8,6,7,0,-3
1772819825.9098094,1,4,12,32,-1,5,2,3,-2,-1,-4,-5,-5,-9,-7,-6,-8,-8,-5,-7,-5,-3,0,-2,3,2,1,6,3,6,0,-2
1772819825.9117625,1,6,12,32,-1,4,2,3,-1,-1,-3,-5,-4,-8,-7,-6,-9,-8,-5,-7,-5,-2,1,-4,3,3,2,3,1,4,1,0
1772819825.9137156,0,7,12,32,0,3,3,2,0,-1,-3,-4,-4,-7,-7,-6,-9,-8,-5,-7,-5,-1,1,-5,3,3,3,1,-1,2,1,1
1772819825.9156687,1,7,12,33,0,2,3,2,0,-2,-2,-3,-3,-6,-7,-6,-8,-8,-5,-7,-4,-1,1,-6,4,4,3,-1,-3,0,1,2
1772819825.9176219,1,7,11,34,0,1,4,1,0,-2,-2,-3,-3,-5,-6,-5,-8,-8,-5,-7,-4,0,1,-7,4,4,3,-3,-4,-1,1,3
1772819825.919575,1,7,10,35,0,0,4,1,1,-2,-2,-2,-3,-4,-6,-4,-7,-7,-5,-6,-3,0,1,-8,4,3,3,-5,-5,-2,1,3
1772819825.921528,2,6,9,37,0,-1,4,0,0,-3,-2,-2,-3,-3,-5,-4,-6,-7,-5,-6,-3,0,0,-8,4,3,3,-6,-4,-3,0,3
1772819825.9234812,2,4,8,38,0,-2,4,-1,0,-3,-2,-1,-3,-1,-5,-3,-6,-6,-6,-5,-2,-1,0,-7,5,2,2,-6,-2,-4,0,2
1772819825.9254344,2,3,7,39,0,-3,4,-1,0,-3,-2,-1,-3,-1,-4,-2,-4,-6,-6,-4,-2,-1,-1,-6,5,1,2,-6,0,-4,0,1
1772819825.9273875,2,2,7,40,-1,-3,3,-2,-1,-4,-3,-1,-4,0,-3,-1,-3,-5,-7,-3,-1,-2,-2,-4,5,0,1,-6,3,-4,0,-1
1772819825.9293406,2,0,6,40,-1,-4,3,-2,-1,-4,-3,-1,-4,1,-3,0,-2,-4,-7,-2,-1,-3,-3,-3,4,-1,0,-5,5,-3,-1,-2
1772819825.9312937,2,-1,6,39,-2,-4,2,-3,-2,-3,-4,-1,-5,1,-2,0,-1,-4,-7,-1,-1,-4,-4,-1,4,-2,-1,-3,7,-2,-1,-4
1772819825.9332469,1,-2,6,37,-2,-4,1,-3,-2,-3,-4,-1,-5,1,-1,1,1,-3,-7,0,-1,-5,-4,1,3,-2,-2,-2,9,-1,-1,-5
1772819825.9352,0,-3,5,35,-3,-5,1,-3,-3,-3,-4,-1,-5,1,0,2,2,-2,-6,1,-1,-5,-4,2,2,-3,-2,-1,9,0,-1,-6
1772819825.937153,-1,-3,5,32,-3,-5,0,-4,-3,-2,-4,-1,-5,1,1,4,4,-1,-6,3,0,-5,-4,3,1,-3,-3,0,8,1,-1,-7
1772819825.9391062,-2,-4,5,29,-3,-5,0,-4,-3,-1,-4,-1,-5,1,2,5,5,0,-5,4,0,-5,-4,3,0,-3,-3,0,6,2,-1,-8
1772819825.9410594,-3,-5,5,26,-3,-5,1,-4,-3,-1,-4,0,-5,1,3,5,6,1,-4,5,0,-5,-3,3,-1,-3,-3,0,4,2,-1,-8
1772819825.9430125,-4,-6,4,23,-3,-5,1,-4,-3,0,-3,0,-5,1,3,6,8,3,-3,6,1,-4,-2,2,-1,-3,-4,0,1,3,-1,-7
1772819825.9449656,-5,-7,4,21,-3,-5,2,-5,-3,0,-3,0,-5,0,4,7,9,3,-1,7,1,-4,-1,0,-2,-2,-3,0,-3,3,-1,-6
1772819825.9469187,-5,-9,3,19,-3,-5,2,-5,-3,0,-3,-1,-5,0,4,7,9,4,0,8,2,-3,0,-1,-2,-2,-3,-1,-6,3,-1,-5
1772819825.9488719,-5,-10,3,18,-2,-5,3,-5,-3,0,-3,-1,-5,-1,3,6,10,5,1,9,3,-2,1,-3,-1,-1,-3,-2,-8,2,-1,-4
1772819825.950825,-4,-10,3,18,-2,-5,3,-6,-3,-1,-3,-2,-5,-2,2,5,10,5,2,10,4,-1,2,-4,-1,-1,-2,-3,-10,2,-1,-3
1772819825.952778,-3,-11,3,18,-1,-5,3,-6,-3,-1,-3,-2,-5,-4,1,4,10,6,3,11,5,0,3,-4,0,0,-2,-4,-11,1,-1,-1
1772819825.9547312,-2,-11,3,19,-1,-5,2,-7,-3,-2,-4,-4,-5,-5,0,3,9,6,4,11,6,1,4,-4,0,1,-1,-4,-11,1,0,0
1772819825.9566844,0,-11,4,20,-1,-5,1,-8,-4,-3,-5,-5,-6,-6,-2,2,9,6,5,11,7,2,5,-3,1,1,-1,-4,-10,0,0,1
1772819825.9586375,1,-10,5,21,0,-4,0,-8,-4,-5,-7,-6,-6,-8,-4,1,8,6,5,11,8,2,6,-2,1,1,-1,-4,-8,0,0,1
1772819825.9605906,3,-9,7,23,0,-3,-2,-9,-5,-6,-9,-8,-7,-9,-5,-1,8,6,5,11,9,2,6,0,2,1,-1,-4,-7,0,1,1
1772819825.9625437,4,-8,8,25,0,-3,-4,-9,-5,-7,-11,-9,-8,-11,-7,-2,7,6,5,11,9,2,6,3,2,1,-1,-3,-4,0,1,1
1772819825.9644969,5,-6,10,27,0,-2,-5,-9,-5,-8,-13,-10,-8,-12,-8,-3,6,6,5,11,9,2,5,5,2,1,-2,-2,-2,1,1,0
1772819825.96645,6,-3,11,30,0,-1,-7,-9,-6,-8,-15,-11,-9,-13,-9,-4,6,5,5,10,9,2,5,7,1,0,-2,-1,0,1,2,-1
1772819825.968403,7,0,12,33,0,0,-8,-9,-6,-8,-17,-12,-9,-14,-9,-4,5,5,4,10,8,1,4,8,1,0,-3,0,2,1,2,-2
1772819825.9703562,7,2,13,35,0,0,-8,-8,-6,-8,-18,-12,-10,-14,-10,-5,5,4,3,9,6,0,3,9,1,-1,-3,1,4,2,2,-3
1772819825.9723094,6,5,14,38,1,1,-8,-7,-5,-7,-19,-12,-10,-15,-10,-5,4,3,1,8,5,-1,2,9,0,-1,-4,1,6,2,3,-3
1772819825.9742625,6,7,14,41,1,2,-7,-6,-5,-6,-19,-12,-10,-15,-10,-6,3,2,0,7,3,-2,0,8,0,-2,-4,2,7,2,3,-4
1772819825.9762156,6,9,14,43,2,2,-6,-5,-4,-5,-19,-12,-11,-14,-10,-7,2,1,-2,5,1,-3,-1,7,0,-2,-4,2,8,2,4,-4
1772819825.9781687,6,10,14,45,3,3,-4,-4,-3,-4,-19,-11,-11,-14,-10,-7,0,0,-3,4,-1,-4,-2,5,0,-2,-3,2,8,2,5,-3
1772819825.9801219,5,10,13,46,4,3,-1,-3,-2,-3,-18,-10,-11,-13,-10,-8,-1,-2,-5,2,-3,-4,-3,3,0,-2,-3,1,8,2,6,-3
1772819825.982075,5,10,12,46,5,4,1,-2,-1,-1,-17,-9,-11,-11,-10,-9,-3,-4,-6,0,-5,-5,-3,0,0,-1,-2,1,8,2,7,-2
1772819825.984028,5,10,12,46,6,5,4,-1,0,0,-15,-7,-10,-10,-10,-10,-5,-5,-7,-1,-7,-5,-4,-1,0,-1,-1,0,7,2,7,-1
1772819825.9859812,6,9,11,46,6,6,6,-1,0,1,-14,-6,-10,-9,-10,-11,-7,-6,-8,-3,-8,-6,-4,-3,0,0,-1,-1,6,2,8,1
1772819825.9879344,6,7,10,45,7,6,8,-1,1,2,-12,-4,-10,-7,-10,-12,-8,-8,-8,-5,-9,-6,-4,-4,-1,1,-1,-2,5,1,9,2
1772819825.9898875,6,5,9,43,7,7,10,-1,2,3,-11,-3,-9,-5,-9,-13,-10,-8,-8,-6,-9,-5,-3,-4,-1,1,0,-2,4,1,9,3
1772819825.9918406,6,3,9,41,7,8,11,-1,2,4,-10,-2,-9,-4,-9,-13,-11,-9,-8,-7,-9,-5,-3,-4,-2,2,0,-3,2,1,9,4
1772819825.9937937,6,1,8,39,7,8,11,-1,2,4,-9,-1,-8,-2,-8,-13,-11,-9,-7,-7,-9,-5,-2,-4,-3,2,0,-3,1,1,9,4
1772819825.9957469,6,-1,8,38,7,8,11,-2,2,4,-8,0,-8,-1,-7,-13,-11,-9,-7,-8,-8,-4,-2,-3,-4,3,0,-2,1,0,9,4
1772819825.9977,6,-3,7,36,6,8,11,-3,1,4,-8,1,-8,0,-7,-13,-11,-9,-6,-7,-8,-4,-1,-2,-4,3,0,-2,0,0,9,4
1772819825.999653,5,-4,7,35,5,7,10,-3,1,4,-7,1,-7,1,-6,-12,-11,-9,-5,-7,-7,-4,0,-1,-4,3,0,-1,0,0,8,3
1772819826.0016062,4,-5,7,34,4,6,9,-4,0,3,-8,1,-7,2,-5,-11,-10,-8,-4,-6,-6,-4,0,-1,-4,3,0,0,0,0,8,2
1772819826.0035594,3,-5,7,34,3,5,9,-4,0,3,-8,2,-7,2,-4,-10,-9,-7,-4,-5,-6,-4,0,-1,-4,3,0,0,0,0,7,1
1772819826.0055125,2,-5,7,34,2,4,8,-4,-1,3,-8,2,-7,2,-4,-9,-8,-7,-4,-4,-5,-4,1,-1,-3,3,1,1,1,0,7,-1
1772819826.0074656,1,-4,7,34,1,3,7,-4,-1,2,-8,1,-7,2,-4,-8,-6,-6,-3,-3,-5,-5,1,-2,-1,2,1,2,1,1,6,-3
1772819826.0094187,0,-3,8,34,1,2,7,-4,-2,2,-9,1,-7,2,-3,-7,-5,-5,-3,-3,-5,-5,0,-3,0,2,1,2,2,1,6,-4
1772819826.0113719,-1,-3,8,34,0,1,6,-4,-2,2,-9,1,-7,2,-3,-6,-4,-4,-3,-2,-5,-6,0,-4,1,1,1,2,2,2,6,-6
1772819826.013325,-2,-2,9,35,0,1,6,-4,-2,2,-9,1,-7,1,-3,-6,-3,-3,-4,-2,-5,-6,0,-5,2,1,0,2,3,3,6,-7
1772819826.015278,-3,-2,10,35,1,1,6,-4,-2,2,-9,0,-7,0,-4,-5,-2,-2,-4,-2,-5,-6,-1,-6,3,1,0,2,3,4,6,-7
1772819826.0172312,-3,-2,10,35,1,1,6,-4,-2,2,-9,0,-7,0,-4,-5,-1,-1,-4,-1,-5,-7,-2,-7,2,0,-1,1,3,5,7,-7
1772819826.0191844,-3,-2,11,35,2,1,6,-4,-1,2,-9,-1,-7,-1,-4,-4,0,0,-4,-1,-6,-7,-2,-7,2,0,-2,0,3,6,7,-7
1772819826.0211375,-2,-3,11,35,3,2,6,-4,-1,2,-9,-2,-7,-2,-5,-4,1,1,-4,-1,-6,-7,-3,-7,1,0,-3,-1,3,7,7,-7
1772819826.0230906,-1,-4,12,35,3,3,6,-4,-1,2,-8,-2,-8,-3,-5,-4,2,2,-4,-1,-6,-6,-3,-7,-1,0,-4,-2,2,7,7,-6
1772819826.0250437,0,-5,12,35,4,4,6,-4,-1,2,-8,-3,-8,-4,-5,-3,3,3,-4,-1,-5,-6,-4,-6,-3,0,-6,-3,2,8,8,-5
1772819826.0269969,1,-6,11,34,5,4,6,-4,-1,1,-7,-4,-8,-4,-5,-3,4,4,-3,0,-5,-6,-4,-5,-5,0,-6,-4,2,7,8,-4
1772819826.02895,2,-7,11,33,5,5,6,-5,-1,1,-7,-5,-8,-5,-5,-2,5,5,-3,0,-4,-5,-4,-4,-7,0,-7,-5,2,7,7,-3
1772819826.030903,3,-7,11,33,5,5,6,-5,-2,0,-6,-6,-8,-6,-5,-2,6,6,-2,1,-3,-5,-4,-3,-8,0,-7,-6,2,6,7,-3
1772819826.0328562,3,-6,11,32,5,5,6,-6,-2,-1,-6,-6,-8,-7,-5,-1,6,6,-2,2,-2,-4,-4,-2,-9,1,-7,-7,3,5,7,-2
1772819826.0348094,3,-4,10,31,4,4,7,-7,-3,-2,-5,-7,-9,-8,-6,-1,7,6,-1,3,-1,-4,-4,-1,-9,1,-7,-7,3,4,6,-3
1772819826.0367625,3,-2,10,31,3,4,7,-8,-4,-2,-5,-8,-9,-8,-6,-1,7,6,-1,4,-1,-4,-3,0,-9,1,-7,-7,4,2,6,-3
1772819826.0387156,3,1,10,30,2,3,7,-9,-4,-3,-4,-8,-9,-9,-6,-1,7,6,-1,5,0,-4,-3,1,-9,1,-6,-7,5,2,5,-4
1772819826.0406687,2,4,11,30,1,3,8,-10,-5,-3,-4,-8,-9,-9,-6,-1,6,5,-2,5,0,-4,-3,1,-7,0,-5,-7,6,1,5,-5
1772819826.0426219,2,8,11,30,0,2,8,-10,-6,-3,-4,-8,-9,-9,-6,-1,5,3,-2,5,1,-5,-2,2,-6,0,-4,-6,7,1,5,-6
1772819826.044575,1,11,12,31,-1,2,9,-11,-6,-3,-4,-8,-9,-9,-7,-2,4,2,-3,5,0,-5,-2,2,-5,0,-3,-4,7,2,4,-7
1772819826.046528,1,14,13,32,-1,2,9,-11,-6,-3,-3,-8,-10,-9,-7,-3,2,0,-4,4,0,-6,-3,2,-4,-1,-3,-3,7,2,4,-8
1772819826.0484812,1,17,14,32,-2,2,10,-10,-6,-2,-3,-8,-10,-9,-8,-4,0,-2,-6,3,-1,-6,-3,1,-3,-1,-2,-1,7,4,5,-9
1772819826.0504344,1,19,15,34,-1,3,11,-10,-5,-1,-3,-7,-10,-8,-8,-5,-2,-4,-7,1,-2,-7,-3,1,-2,-1,-1,0,6,5,5,-9
1772819826.0523875,2,21,15,35,-1,3,11,-9,-5,0,-3,-6,-10,-8,-8,-7,-4,-6,-9,-1,-3,-8,-4,0,-2,-2,-1,2,4,6,6,-9
1772819826.0543406,2,22,16,36,0,4,12,-7,-4,1,-3,-6,-11,-7,-8,-8,-6,-8,-10,-2,-4,-8,-5,0,-2,-2,-1,3,3,7,6,-9
1772819826.0562937,3,22,16,37,2,4,12,-6,-3,2,-2,-5,-11,-6,-8,-9,-8,-10,-11,-4,-5,-8,-5,-1,-3,-2,-1,4,1,8,7,-8
1772819826.0582469,3,22,15,38,3,5,12,-4,-2,3,-2,-5,-11,-5,-8,-9,-10,-12,-12,-5,-6,-8,-6,-2,-3,-2,-1,5,-1,8,8,-7
1772819826.0602,4,22,15,39,4,5,11,-3,-2,4,-1,-4,-11,-4,-8,-10,-11,-13,-13,-6,-6,-8,-6,-3,-4,-1,-1,5,-3,8,8,-6
1772819826.062153,4,21,14,39,5,5,11,-2,-1,4,0,-4,-12,-4,-7,-10,-12,-14,-13,-7,-5,-8,-6,-4,-4,-1,-1,5,-4,8,8,-5
1772819826.0641062,4,21,13,38,6,5,10,-2,-1,5,1,-3,-12,-3,-7,-11,-13,-15,-13,-7,-5,-7,-6,-4,-5,-1,-1,4,-5,7,9,-4
1772819826.0660594,4,20,13,38,7,4,9,-2,-1,5,2,-3,-12,-3,-7,-11,-13,-15,-13,-7,-4,-7,-5,-4,-5,0,-1,4,-4,6,9,-3
1772819826.0680125,4,20,12,36,7,4,9,-2,-1,5,3,-3,-12,-2,-7,-11,-13,-16,-13,-7,-3,-6,-5,-5,-5,0,-1,3,-3,6,8,-2
1772819826.0699656,4,21,12,34,7,4,8,-3,-1,5,3,-3,-13,-2,-7,-12,-13,-16,-13,-7,-2,-6,-4,-4,-4,1,-1,2,-1,5,8,-1
1772819826.0719187,4,21,11,32,6,4,8,-4,-1,5,3,-3,-13,-2,-7,-12,-13,-15,-12,-6,-1,-6,-3,-4,-3,1,-2,2,1,4,8,-1
1772819826.0738719,4,23,11,29,5,4,7,-6,-2,5,3,-3,-13,-2,-8,-12,-13,-15,-12,-6,-1,-6,-3,-3,-2,1,-2,1,4,4,7,-1
1772819826.075825,3,24,12,26,4,4,7,-7,-2,5,2,-3,-14,-3,-8,-13,-13,-14,-11,-5,0,-6,-2,-3,0,1,-2,0,6,4,7,-1
1772819826.077778,3,26,12,23,3,5,8,-8,-2,5,1,-3,-14,-3,-9,-13,-12,-14,-11,-5,0,-6,-2,-2,1,1,-2,0,7,4,6,-2
1772819826.0797312,4,28,13,21,2,6,8,-9,-3,4,0,-3,-14,-3,-9,-14,-12,-13,-10,-4,1,-6,-2,-1,2,1,-3,-1,8,5,6,-2
1772819826.0816844,4,30,14,18,1,7,9,-10,-3,4,-1,-4,-14,-3,-9,-14,-11,-12,-10,-3,1,-6,-2,0,3,1,-3,-2,8,5,5,-3
1772819826.0836375,4,32,15,16,1,8,9,-10,-3,4,-3,-4,-14,-3,-10,-14,-10,-11,-9,-2,1,-6,-2,0,4,0,-3,-3,8,5,5,-3
1772819826.0855906,4,33,16,15,0,9,10,-10,-3,3,-5,-4,-14,-3,-9,-13,-8,-9,-9,-1,1,-6,-3,0,4,-1,-4,-3,6,5,4,-4
1772819826.0875437,5,34,16,14,0,10,10,-10,-3,3,-6,-4,-14,-3,-9,-12,-7,-8,-8,0,1,-6,-3,0,3,-1,-4,-4,5,5,4,-5
1772819826.0894969,5,33,16,14,0,10,10,-10,-4,2,-7,-4,-13,-2,-8,-11,-5,-6,-7,1,1,-6,-4,0,2,-2,-5,-5,3,5,4,-5
1772819826.09145,4,32,15,14,0,10,10,-9,-4,1,-7,-4,-12,-2,-6,-9,-3,-5,-7,3,1,-6,-5,0,1,-3,-5,-5,1,4,3,-6
1772819826.093403,4,31,14,15,0,10,10,-8,-4,1,-8,-5,-11,-2,-5,-7,-1,-3,-6,4,1,-6,-5,0,0,-4,-6,-6,-1,4,3,-7
1772819826.0953562,3,28,13,17,0,9,10,-7,-4,0,-7,-5,-10,-2,-4,-5,0,-2,-5,5,1,-6,-6,0,-2,-5,-6,-6,-2,3,2,-7
1772819826.0973094,2,26,11,19,0,8,9,-6,-4,-1,-7,-5,-9,-2,-3,-4,2,-1,-4,6,1,-5,-6,-1,-3,-5,-7,-6,-3,2,2,-7
1772819826.0992625,1,23,9,20,0,7,9,-6,-4,-1,-6,-6,-8,-2,-2,-2,4,1,-3,6,1,-5,-6,-1,-4,-5,-7,-6,-3,1,2,-7
1772819826.1012156,0,20,7,22,1,5,8,-5,-4,-2,-6,-6,-7,-3,-1,-1,5,2,-2,6,2,-4,-5,-1,-5,-4,-7,-6,-3,0,2,-6
1772819826.1031687,-1,18,5,24,1,4,7,-5,-4,-3,-6,-7,-6,-4,-1,0,6,3,-1,6,2,-3,-5,-1,-5,-4,-6,-6,-3,0,2,-6
1772819826.1051219,-3,16,3,25,1,2,6,-5,-3,-3,-6,-7,-6,-5,-2,0,6,4,0,6,2,-2,-4,-1,-5,-2,-6,-6,-3,0,2,-5
1772819826.107075,-4,15,2,26,2,1,5,-5,-3,-4,-6,-8,-5,-6,-3,0,6,5,1,5,3,-1,-2,-1,-4,-1,-5,-6,-3,-1,3,-4
1772819826.109028,-5,14,1,26,2,0,4,-5,-3,-5,-6,-8,-4,-7,-4,0,6,5,2,5,3,0,-1,-2,-3,1,-4,-6,-3,-1,3,-3
1772819826.1109812,-6,14,0,26,2,-1,3,-6,-2,-5,-7,-9,-3,-9,-5,-1,5,5,3,4,4,1,0,-2,-2,3,-3,-6,-4,-1,4,-2
1772819826.1129344,-6,14,0,25,2,-2,1,-6,-2,-6,-7,-9,-2,-10,-7,-2,4,6,4,4,4,2,2,-2,-1,4,-1,-6,-5,-1,4,0
1772819826.1148875,-7,15,0,24,2,-2,0,-7,-1,-6,-8,-9,-2,-10,-8,-4,4,6,5,3,5,3,3,-3,0,6,0,-7,-6,-1,5,1
1772819826.1168406,-7,16,1,23,2,-3,-1,-7,-1,-6,-8,-9,-1,-11,-9,-5,3,6,5,3,5,4,4,-3,2,7,1,-7,-8,-1,5,2
1772819826.1187937,-6,16,2,21,2,-3,-2,-8,0,-6,-8,-9,-1,-11,-10,-6,2,5,6,3,5,4,5,-4,2,8,1,-8,-9,-2,5,3
1772819826.1207469,-5,17,3,20,2,-2,-3,-8,0,-5,-8,-8,-1,-10,-10,-6,2,5,6,3,6,5,6,-4,3,9,2,-10,-10,-3,5,4
1772819826.1227,-4,17,4,18,1,-2,-3,-8,1,-5,-7,-8,-1,-9,-10,-7,1,4,5,3,6,5,6,-5,3,9,2,-11,-11,-3,4,4
1772819826.124653,-3,17,5,17,1,-2,-4,-8,1,-4,-5,-7,-1,-8,-10,-7,1,3,5,3,6,4,6,-5,3,9,2,-12,-11,-4,4,5
1772819826.1266062,-2,16,6,16,1,-1,-4,-7,1,-3,-4,-6,-1,-7,-9,-8,0,3,4,4,5,4,5,-5,2,8,2,-12,-10,-5,3,5
1772819826.1285594,0,15,7,15,1,0,-4,-7,1,-2,-3,-5,-1,-6,-9,-8,-1,1,3,4,5,3,4,-5,2,8,1,-13,-9,-5,3,5
1772819826.1305125,1,14,8,15,1,0,-3,-6,1,-1,-1,-4,-1,-5,-8,-8,-1,0,2,4,5,2,3,-5,1,7,0,-13,-7,-6,3,4
1772819826.1324656,3,13,8,15,1,1,-3,-5,1,0,0,-3,-1,-3,-7,-8,-2,-1,1,3,4,1,2,-5,0,6,0,-13,-5,-6,3,4
1772819826.1344187,4,12,8,15,1,1,-2,-4,1,1,0,-2,-2,-2,-6,-9,-3,-3,-1,3,3,0,0,-4,-1,5,-1,-13,-3,-6,3,3
1772819826.1363719,6,12,8,15,2,2,-1,-3,1,1,0,-2,-2,-1,-6,-9,-4,-4,-2,2,3,-1,-1,-4,-2,4,-1,-12,-1,-5,3,3
1772819826.138325,7,11,8,16,2,2,0,-2,1,2,0,-1,-2,-1,-6,-9,-6,-6,-3,1,2,-2,-1,-3,-2,3,-1,-12,0,-5,3,2
1772819826.140278,8,11,8,16,3,3,1,-1,1,2,-1,-1,-2,0,-6,-9,-7,-7,-4,0,2,-2,-2,-3,-2,3,0,-11,2,-4,4,2
1772819826.1422312,9,11,7,16,3,3,2,-1,1,1,-2,-1,-2,1,-5,-9,-8,-8,-5,-1,1,-3,-2,-3,-2,2,0,-10,3,-3,4,1
1772819826.1441844,9,11,6,16,3,4,3,-1,1,1,-3,-1,-2,1,-5,-9,-9,-9,-6,-2,1,-3,-3,-3,-2,2,1,-9,4,-3,5,1
1772819826.1461375,9,12,5,15,4,5,3,-1,1,0,-4,-1,-2,2,-5,-9,-10,-10,-6,-3,1,-3,-3,-3,-1,3,1,-8,5,-2,5,1
1772819826.1480906,9,12,4,14,4,5,4,-1,1,0,-4,-1,-2,2,-5,-9,-10,-10,-7,-4,1,-3,-3,-3,-1,3,2,-7,5,-2,6,1
1772819826.1500437,9,12,3,13,4,5,4,-1,1,0,-5,-1,-2,3,-4,-9,-10,-11,-7,-5,1,-2,-2,-3,0,3,2,-6,5,-1,6,1
1772819826.1519969,8,11,2,12,3,6,4,-1,1,-1,-5,0,-2,4,-3,-8,-10,-11,-7,-5,1,-2,-2,-4,0,3,2,-6,4,-1,5,2
1772819826.15395,7,10,0,10,3,6,4,-2,1,-1,-4,0,-1,5,-2,-7,-10,-10,-6,-5,1,-2,-2,-4,1,4,2,-5,3,-1,5,2
1772819826.155903,5,9,-2,9,3,6,3,-2,1,0,-4,1,-1,6,-1,-6,-9,-10,-6,-4,2,-1,-2,-5,1,4,2,-5,2,-1,4,2
1772819826.1578562,4,8,-3,7,2,6,3,-2,1,0,-3,2,-1,7,0,-5,-8,-9,-5,-3,2,-1,-2,-5,1,4,2,-5,0,-1,3,3
1772819826.1598094,2,6,-5,5,2,5,2,-2,2,0,-2,2,0,8,1,-4,-7,-8,-5,-3,3,0,-2,-6,2,4,2,-5,-3,-1,3,3
1772819826.1617625,1,5,-6,3,2,5,2,-1,2,1,-1,3,0,9,3,-3,-6,-7,-4,-2,3,0,-1,-7,2,4,2,-5,-5,-1,2,4
1772819826.1637156,-1,3,-8,2,1,4,1,-1,3,1,0,4,1,10,3,-2,-5,-6,-3,-1,4,1,-1,-8,2,4,2,-5,-8,-1,1,5
1772819826.1656687,-2,2,-9,0,1,3,0,-1,3,1,0,4,1,10,4,-1,-4,-5,-3,0,4,1,0,-8,3,4,2,-5,-10,-1,1,5
1772819826.1676219,-3,2,-9,-2,2,3,0,-1,3,1,0,4,2,10,4,-1,-3,-5,-2,0,4,2,0,-9,3,5,2,-5,-12,-1,1,6
1772819826.169575,-4,2,-10,-3,2,2,-1,-1,4,1,-1,4,3,9,4,-1,-2,-4,-1,1,4,2,1,-10,4,5,3,-4,-14,-1,1,7
1772819826.171528,-4,3,-9,-5,2,1,-1,-1,4,1,-2,4,3,8,3,-1,-2,-3,-1,1,4,3,2,-10,4,6,5,-4,-15,-1,1,7
1772819826.1734812,-3,4,-9,-6,2,1,-1,-1,4,0,-3,3,3,6,2,-1,-2,-3,-1,0,4,3,2,-11,5,6,6,-3,-16,-1,2,8
1772819826.1754344,-3,5,-8,-7,2,1,-1,-2,3,0,-5,2,4,4,0,-1,-2,-2,0,0,4,3,3,-10,5,7,7,-2,-15,0,3,8
1772819826.1773875,-1,7,-6,-8,3,1,-2,-2,3,-1,-6,1,4,2,-2,-2,-3,-2,0,-1,3,3,3,-10,6,7,8,-2,-14,0,4,8
1772819826.1793406,0,9,-5,-8,3,2,-2,-2,3,-2,-7,-1,4,0,-3,-2,-3,-2,0,-1,3,3,3,-9,6,7,9,-1,-12,0,5,7
1772819826.1812937,1,10,-3,-9,3,2,-2,-3,2,-2,-8,-2,4,-3,-5,-3,-3,-1,0,-2,2,2,3,-8,5,7,9,0,-9,1,5,7
1772819826.1832469,3,11,-2,-9,3,3,-2,-3,2,-3,-9,-4,4,-5,-6,-3,-3,-1,0,-2,2,2,3,-7,5,7,9,0,-6,1,6,6
1772819826.1852,4,11,0,-9,2,3,-3,-3,1,-3,-9,-5,3,-7,-7,-3,-2,0,0,-2,1,1,3,-6,4,7,9,0,-3,1,6,5
1772819826.187153,5,11,1,-9,2,4,-3,-4,1,-3,-8,-6,3,-9,-8,-3,-2,1,0,-2,1,1,2,-4,3,7,8,0,0,1,6,3
1772819826.1891062,5,10,1,-9,2,4,-4,-4,1,-3,-7,-6,3,-10,-8,-3,-1,2,0,-1,1,1,2,-3,2,7,7,0,3,1,6,2
1772819826.1910594,6,9,1,-10,2,4,-4,-4,1,-3,-6,-7,3,-10,-8,-3,0,3,1,-1,1,1,2,-2,0,6,6,0,5,0,6,2
1772819826.1930125,6,7,1,-10,2,4,-4,-4,1,-2,-4,-6,3,-10,-8,-3,1,3,1,0,2,2,1,-1,-1,6,5,-1,6,0,5,1
1772819826.1949656,6,5,1,-11,1,3,-5,-4,1,-2,-3,-6,3,-10,-8,-2,2,4,2,1,2,2,1,-1,-2,6,3,-2,6,-1,4,1
1772819826.1969187,5,3,0,-12,1,3,-5,-4,1,-1,-1,-6,3,-9,-7,-2,3,5,2,1,2,2,1,0,-2,6,2,-2,6,-1,4,1
1772819826.1988719,5,1,-1,-13,2,2,-4,-4,2,-1,0,-5,2,-8,-6,-2,3,5,3,1,3,3,1,0,-2,6,2,-3,5,-1,4,1
1772819826.200825,5,0,-2,-14,2,2,-4,-4,2,0,1,-4,2,-6,-5,-2,3,5,3,1,3,3,2,-1,-2,6,1,-3,4,-1,3,2
1772819826.202778,5,-2,-3,-15,2,1,-3,-4,2,0,2,-3,2,-5,-4,-2,3,5,3,0,3,3,2,-2,-2,7,1,-4,2,-1,4,3
1772819826.2047312,5,-3,-4,-16,3,1,-2,-4,2,0,2,-3,1,-3,-3,-2,2,4,2,0,3,3,2,-3,-1,7,1,-4,1,0,4,4
1772819826.2066844,5,-3,-5,-16,3,1,-1,-4,3,1,2,-2,1,-2,-3,-2,1,3,2,-1,2,3,2,-4,0,7,2,-4,0,1,4,5
1772819826.2086375,5,-3,-5,-16,4,1,0,-3,3,1,2,-1,1,0,-2,-3,0,2,1,-2,1,2,2,-6,1,7,2,-4,0,2,5,5
1772819826.2105906,5,-3,-5,-15,4,1,1,-3,2,1,2,0,0,1,-2,-3,-1,1,0,-3,0,2,1,-7,2,7,3,-3,0,3,5,6
1772819826.2125437,5,-2,-5,-14,4,2,2,-3,2,1,1,0,0,2,-2,-3,-2,0,-1,-4,-1,1,1,-9,3,7,3,-3,0,4,6,6
1772819826.2144969,5,-1,-5,-12,4,2,2,-2,2,1,1,1,0,3,-2,-4,-4,-1,-2,-5,-2,0,1,-10,4,7,4,-3,0,5,6,6
1772819826.21645,4,0,-4,-10,4,2,3,-2,2,1,1,2,-1,4,-2,-4,-5,-2,-3,-6,-3,0,0,-11,4,7,4,-3,0,5,6,5
1772819826.218403,4,1,-4,-8,4,3,4,-1,2,1,1,2,-1,5,-2,-5,-6,-3,-3,-7,-4,-1,0,-12,4,6,4,-3,1,5,7,5
1772819826.2203562,3,3,-3,-7,4,3,4,-1,2,2,1,3,-1,6,-2,-5,-6,-4,-4,-8,-4,-1,-1,-13,4,6,4,-3,1,5,7,4
1772819826.2223094,3,5,-3,-5,4,3,4,-1,2,2,2,4,0,7,-2,-5,-7,-4,-4,-8,-5,-2,-1,-13,3,5,4,-3,1,4,7,3
1772819826.2242625,2,7,-2,-4,5,3,3,0,3,3,2,5,0,8,-2,-6,-8,-5,-4,-8,-5,-2,-1,-13,2,5,3,-3,0,4,7,2
1772819826.2262156,2,8,-2,-3,5,3,3,0,3,4,2,5,0,8,-2,-6,-8,-5,-4,-9,-4,-2,-1,-12,1,4,3,-3,-1,3,7,2
1772819826.2281687,1,10,-1,-3,5,2,2,0,3,4,2,6,1,9,-2,-6,-8,-5,-4,-9,-4,-1,-1,-12,1,4,2,-3,-2,2,7,1
1772819826.2301219,1,11,-1,-4,5,1,1,0,4,5,1,6,1,9,-2,-6,-8,-5,-4,-9,-3,-1,-1,-11,0,4,2,-3,-3,2,7,1
1772819826.232075,1,12,-2,-5,5,1,1,0,4,5,1,6,1,10,-1,-6,-8,-5,-3,-8,-2,-1,-1,-10,-1,4,1,-3,-5,2,7,1
1772819826.234028,1,12,-2,-6,5,0,0,0,4,6,0,6,1,10,-1,-6,-8,-5,-3,-8,-1,0,-1,-9,-2,4,1,-3,-6,2,7,1
1772819826.2359812,1,12,-2,-7,5,0,0,0,5,6,-1,6,2,10,-1,-6,-8,-5,-2,-8,0,1,0,-8,-3,4,0,-3,-7,3,7,2
1772819826.2379344,2,11,-3,-9,6,-1,-1,-1,5,6,-2,6,2,10,0,-6,-7,-5,-1,-7,1,1,0,-7,-3,4,-1,-2,-7,3,6,2
1772819826.2398875,2,9,-4,-10,5,-1,-1,-2,5,5,-2,5,2,10,1,-5,-7,-4,-1,-6,2,2,0,-7,-4,5,-1,-2,-7,3,6,3
1772819826.2418406,3,7,-5,-11,5,-2,-1,-3,5,5,-3,4,2,9,1,-5,-6,-4,0,-5,3,2,1,-6,-4,5,-1,-2,-7,4,5,4
1772819826.2437937,3,5,-6,-12,5,-2,-2,-4,5,4,-3,3,2,9,2,-4,-5,-3,1,-4,3,3,1,-6,-4,5,-1,-1,-6,4,5,5
1772819826.2457469,4,2,-7,-12,5,-1,-3,-5,4,3,-4,2,3,8,3,-3,-3,-2,1,-3,4,3,1,-5,-4,5,-1,-1,-5,3,5,6
1772819826.2477,4,-1,-7,-12,4,-1,-3,-6,4,1,-4,1,3,6,3,-2,-2,-1,2,-2,4,4,2,-5,-4,6,-1,-1,-4,2,4,6
1772819826.249653,4,-4,-8,-12,4,0,-4,-7,4,0,-4,0,3,5,3,-1,0,0,2,-1,5,4,2,-5,-3,6,-1,-1,-2,1,4,7
1772819826.2516062,4,-6,-8,-11,4,1,-5,-7,3,-2,-4,-2,3,3,3,0,1,1,3,1,5,5,2,-6,-3,6,0,-1,-1,0,4,7
1772819826.2535594,3,-7,-9,-9,4,2,-7,-8,2,-3,-5,-3,3,1,3,1,3,2,4,2,5,5,3,-6,-2,6,1,-1,-1,-1,4,7
1772819826.2555125,3,-7,-9,-8,4,3,-8,-8,2,-4,-5,-5,4,-1,3,2,4,3,4,3,6,5,3,-6,-1,6,2,-1,0,-2,4,7
1772819826.2574656,2,-7,-9,-7,4,3,-9,-8,1,-6,-5,-6,4,-3,2,3,5,3,5,5,6,6,4,-6,0,6,3,-2,0,-3,5,7
1772819826.2594187,1,-5,-8,-5,4,4,-11,-8,0,-7,-6,-7,3,-5,1,3,6,4,5,6,7,6,4,-5,1,6,3,-3,-1,-4,5,6
1772819826.2613719,0,-3,-8,-4,4,4,-11,-7,0,-8,-6,-9,3,-7,1,4,7,5,5,7,7,6,4,-5,2,6,4,-4,-1,-4,6,5
1772819826.263325,-1,0,-7,-3,4,5,-12,-7,-1,-9,-7,-10,3,-8,0,4,8,5,5,8,8,5,4,-4,2,5,4,-4,-2,-4,6,3
1772819826.265278,-2,3,-6,-2,4,4,-12,-6,-2,-9,-7,-11,2,-10,0,4,8,5,5,9,8,5,4,-4,3,5,5,-5,-3,-4,7,2
1772819826.2672312,-2,7,-6,-1,4,4,-11,-6,-3,-9,-7,-12,1,-11,-1,4,8,5,4,10,8,4,4,-3,4,4,5,-6,-3,-3,7,1
1772819826.2691844,-3,10,-5,-1,4,4,-10,-6,-4,-9,-6,-12,0,-11,-1,4,8,4,4,10,8,3,4,-2,4,4,5,-6,-4,-2,7,-1
1772819826.2711375,-2,13,-5,-1,4,3,-8,-6,-4,-8,-6,-12,-1,-12,-1,4,8,3,3,9,8,2,3,-1,4,3,5,-6,-4,-1,7,-2
1772819826.2730906,-2,16,-4,0,4,3,-6,-5,-5,-7,-5,-12,-2,-11,-1,4,7,2,2,9,8,1,2,-1,4,3,5,-6,-4,0,7,-3
1772819826.2750437,-1,18,-4,0,4,3,-3,-5,-5,-6,-3,-11,-3,-11,-2,3,5,1,0,7,8,0,1,0,4,2,5,-6,-4,1,7,-4
1772819826.2769969,1,19,-4,1,4,3,-1,-5,-5,-5,-1,-11,-3,-10,-2,2,4,-1,-2,6,7,-1,1,0,4,2,5,-6,-4,2,7,-5
1772819826.27895,2,19,-5,1,4,3,2,-5,-4,-3,0,-10,-4,-9,-2,1,1,-3,-3,4,6,-2,0,-1,4,2,5,-5,-3,3,7,-5
1772819826.280903,4,19,-5,2,4,3,4,-5,-4,-1,2,-8,-4,-8,-3,-1,-1,-5,-5,2,5,-3,-1,-1,4,2,6,-5,-3,4,7,-5
1772819826.2828562,6,18,-5,3,4,3,6,-4,-3,1,4,-7,-5,-8,-4,-3,-4,-7,-6,0,5,-4,-2,-2,4,2,6,-4,-3,5,8,-4
1772819826.2848094,7,17,-6,4,4,4,8,-4,-2,2,5,-6,-5,-7,-4,-5,-6,-9,-8,-3,4,-4,-2,-3,4,3,7,-3,-3,6,8,-3
1772819826.2867625,9,15,-6,4,5,5,9,-3,-1,4,6,-5,-5,-6,-5,-7,-9,-11,-9,-5,3,-4,-2,-4,4,3,7,-2,-2,6,8,-2
1772819826.2887156,10,14,-6,4,5,5,10,-3,-1,5,7,-4,-5,-5,-6,-8,-11,-12,-10,-7,3,-4,-2,-5,4,4,8,-1,-2,7,9,-1
1772819826.2906687,10,12,-6,4,6,6,10,-3,0,5,7,-3,-5,-4,-7,-10,-13,-13,-10,-8,2,-4,-2,-6,4,4,8,0,-1,7,9,0
1772819826.2926219,10,11,-6,3,6,6,10,-3,0,6,7,-2,-4,-4,-8,-11,-14,-14,-10,-9,2,-4,-1,-6,4,5,9,1,0,6,9,0
1772819826.294575,10,10,-6,2,6,6,10,-3,1,6,6,-1,-4,-3,-8,-11,-14,-14,-10,-9,2,-3,0,-6,4,5,9,2,1,6,10,1
1772819826.296528,9,9,-5,0,6,6,9,-4,0,5,5,-1,-4,-3,-8,-12,-14,-14,-9,-8,3,-3,0,-6,4,5,9,3,2,5,10,1
1772819826.2984812,8,9,-5,-2,5,5,8,-5,0,4,4,-1,-4,-2,-8,-11,-14,-13,-8,-7,3,-3,1,-5,4,5,8,4,4,5,9,1
1772819826.3004344,7,9,-4,-4,4,4,6,-6,-1,3,3,-1,-4,-2,-7,-11,-12,-12,-7,-6,4,-2,2,-4,4,5,8,4,5,4,9,1
1772819826.3023875,6,9,-4,-7,4,4,5,-7,-1,2,3,-2,-4,-1,-6,-10,-11,-11,-6,-4,4,-2,2,-2,4,5,7,5,6,3,9,0
1772819826.3043406,4,9,-3,-9,3,3,3,-8,-2,1,2,-2,-4,-1,-5,-8,-9,-9,-5,-2,5,-2,3,-1,3,5,6,5,6,3,8,0
1772819826.3062937,3,9,-3,-10,2,2,2,-9,-3,0,2,-2,-4,0,-4,-7,-7,-8,-3,0,5,-2,3,0,3,4,6,4,6,3,8,-1
1772819826.3082469,2,10,-3,-11,2,1,0,-10,-3,0,2,-2,-4,0,-2,-5,-5,-6,-2,2,5,-1,3,1,2,4,5,4,5,3,7,-1
1772819826.3102,1,10,-3,-12,2,1,-1,-10,-3,0,3,-2,-4,1,-1,-4,-3,-5,-2,3,5,-2,2,1,2,3,4,3,3,3,7,-1
1772819826.312153,0,10,-3,-12,1,1,-2,-10,-3,0,4,-2,-3,1,0,-3,-1,-4,-1,5,5,-2,2,1,1,3,3,2,2,4,6,-1
1772819826.3141062,-1,11,-3,-11,2,1,-3,-9,-3,0,5,-2,-3,1,1,-3,0,-3,-1,5,4,-2,1,0,1,2,3,1,-1,4,6,-1
1772819826.3160594,-1,11,-3,-10,2,1,-4,-8,-2,0,6,-2,-3,2,1,-2,0,-3,-1,5,3,-2,0,-1,0,2,2,0,-3,5,6,-1
1772819826.3180125,-1,11,-3,-9,3,1,-4,-7,-2,1,6,-2,-2,1,2,-2,0,-3,-2,5,2,-2,0,-3,0,2,2,-1,-5,5,6,-1
1772819826.3199656,-1,11,-4,-7,3,2,-4,-6,-1,1,7,-2,-2,1,1,-3,0,-3,-2,5,2,-3,-1,-4,1,2,2,-1,-6,6,7,0
1772819826.3219187,-1,10,-4,-6,4,2,-4,-4,-1,2,7,-3,-2,0,1,-3,-1,-3,-3,4,1,-3,-1,-6,1,3,3,-1,-7,6,7,0
1772819826.3238719,0,10,-4,-5,5,3,-4,-3,-1,2,7,-3,-2,-1,0,-4,-1,-4,-3,3,1,-3,-1,-7,2,4,4,-1,-7,7,8,1
1772819826.325825,0,10,-5,-5,5,2,-4,-2,-1,1,6,-4,-3,-2,-1,-4,-2,-4,-3,3,1,-3,-1,-7,3,5,5,-1,-6,7,8,1
1772819826.327778,0,10,-5,-5,6,2,-4,-2,-1,1,5,-5,-3,-3,-2,-4,-2,-5,-4,2,1,-3,0,-8,4,6,7,0,-5,6,9,2
1772819826.3297312,0,10,-5,-5,6,2,-4,-3,-2,0,4,-6,-4,-5,-3,-5,-2,-5,-4,2,2,-3,0,-7,5,7,8,1,-3,6,10,2
1772819826.3316844,1,10,-6,-6,6,1,-4,-3,-2,-2,2,-7,-4,-7,-4,-5,-2,-4,-4,3,3,-3,1,-6,7,8,10,2,-2,5,10,2
1772819826.3336375,1,10,-6,-8,5,-1,-4,-5,-3,-3,0,-9,-5,-8,-5,-4,-1,-4,-3,3,4,-2,2,-5,8,9,11,3,0,5,10,3
1772819826.3355906,1,11,-6,-9,5,-2,-5,-7,-4,-4,-1,-10,-5,-9,-5,-3,0,-3,-3,4,6,-2,3,-3,9,10,12,4,1,4,10,3
1772819826.3375437,1,11,-6,-11,4,-3,-5,-9,-5,-6,-2,-11,-5,-11,-5,-3,1,-2,-2,6,7,-2,4,-1,10,10,13,5,2,3,10,3
1772819826.3394969,1,12,-6,-13,3,-4,-5,-11,-6,-7,-3,-12,-6,-11,-5,-2,2,-1,-2,7,8,-1,5,1,11,10,13,6,2,2,9,3
1772819826.34145,1,13,-6,-15,2,-5,-5,-13,-6,-8,-3,-13,-6,-12,-5,-1,4,0,-1,8,9,-1,5,3,12,9,13,6,1,2,8,2
1772819826.343403,1,14,-6,-17,1,-6,-5,-14,-7,-8,-2,-13,-6,-12,-4,0,5,1,0,9,10,-1,5,5,12,8,13,6,0,1,7,2
1772819826.3453562,1,16,-5,-18,0,-6,-5,-15,-7,-8,-2,-13,-5,-11,-3,1,6,2,1,10,10,-1,5,6,12,7,12,5,-2,1,6,1
1772819826.3473094,1,17,-5,-20,-1,-6,-4,-16,-7,-8,-1,-13,-5,-11,-3,1,7,3,1,11,10,-1,5,6,11,6,11,5,-3,2,5,1
1772819826.3492625,0,19,-4,-21,-1,-6,-3,-16,-7,-7,1,-12,-5,-11,-2,2,7,3,1,11,10,-1,4,6,11,4,10,4,-5,2,4,0
1772819826.3512156,0,20,-3,-22,-2,-5,-2,-15,-6,-7,2,-12,-4,-10,-2,2,7,3,2,11,9,-1,3,5,10,3,8,4,-6,3,4,0
1772819826.3531687,0,22,-2,-22,-1,-4,-1,-14,-6,-6,3,-11,-4,-10,-1,1,7,3,1,11,8,-1,3,4,9,3,7,3,-7,5,3,-1
1772819826.3551219,-1,22,-2,-22,-1,-3,0,-13,-5,-4,4,-10,-4,-9,-2,1,6,3,1,10,7,-1,2,3,7,2,6,2,-7,6,4,-1
1772819826.357075,-1,23,-1,-22,0,-2,1,-11,-5,-3,4,-10,-4,-9,-2,0,5,2,0,9,6,-1,1,1,6,2,5,2,-7,8,4,-1
1772819826.359028,-2,22,-1,-21,1,-2,2,-8,-4,-2,5,-9,-4,-9,-2,-1,4,1,0,8,4,-1,1,-1,5,3,4,1,-5,9,5,0
1772819826.3609812,-2,21,-1,-21,3,-1,2,-6,-3,-1,5,-8,-4,-8,-3,-2,2,0,-1,6,3,-2,1,-3,4,3,3,1,-3,11,6,0
1772819826.3629344,-2,19,-2,-20,4,-1,3,-4,-2,0,5,-7,-5,-8,-4,-3,1,-1,-2,5,2,-2,0,-5,3,4,3,1,0,11,7,1
1772819826.3648875,-2,17,-3,-19,5,0,2,-2,-2,1,4,-7,-5,-8,-5,-4,0,-2,-3,4,1,-2,0,-7,3,5,3,1,2,12,8,1
1772819826.3668406,-2,13,-4,-18,6,-1,2,-1,-1,1,4,-6,-5,-7,-5,-4,-1,-3,-3,3,1,-2,0,-8,2,6,3,1,5,11,8,2
1772819826.3687937,-2,10,-6,-18,7,-1,1,1,0,2,4,-5,-5,-7,-5,-5,-1,-3,-4,3,0,-2,0,-9,3,7,4,1,8,11,9,3
1772819826.3707469,-2,6,-7,-18,7,-1,0,1,0,2,4,-4,-5,-6,-5,-5,-1,-3,-4,3,0,-2,1,-9,3,7,4,2,9,9,9,3
1772819826.3727,-2,1,-9,-18,7,-1,-1,2,1,3,4,-3,-5,-5,-5,-4,-1,-2,-4,3,1,-1,1,-9,4,8,5,2,10,8,9,4
1772819826.374653,-2,-3,-10,-19,7,-2,-2,2,1,3,5,-1,-5,-4,-5,-4,-1,-2,-4,3,1,-1,1,-8,6,7,5,2,9,6,8,4
1772819826.3766062,-2,-6,-12,-20,6,-2,-3,1,1,3,6,0,-5,-2,-4,-3,0,-1,-3,4,2,0,2,-7,7,7,5,3,8,5,7,4
1772819826.3785594,-2,-10,-13,-22,5,-2,-4,0,2,3,7,1,-4,-1,-3,-3,1,0,-3,5,3,0,2,-6,8,6,6,3,5,3,6,4
1772819826.3805125,-3,-12,-13,-23,4,-2,-4,-1,2,3,8,2,-3,0,-2,-2,2,2,-2,6,4,1,3,-4,9,6,5,2,2,2,5,4
1772819826.3824656,-3,-13,-14,-25,3,-1,-5,-2,2,3,8,2,-3,1,-2,-1,4,3,-1,7,5,2,3,-3,10,5,5,2,-1,2,3,4
1772819826.3844187,-4,-14,-13,-26,2,-1,-5,-3,2,3,9,3,-2,1,-1,0,5,4,0,9,6,3,3,-2,10,4,5,1,-5,1,2,4
1772819826.3863719,-4,-14,-13,-27,1,0,-6,-4,2,2,10,3,-1,2,0,1,6,5,1,10,6,3,3,0,9,3,4,1,-8,1,1,4
1772819826.388325,-5,-12,-12,-27,1,0,-6,-4,2,2,10,3,-1,2,0,1,6,6,2,10,6,3,3,0,8,2,3,0,-11,1,0,4
1772819826.390278,-5,-10,-11,-27,0,1,-6,-5,2,2,11,3,0,2,1,2,7,6,3,11,6,4,3,1,7,1,2,-1,-13,2,0,4
1772819826.3922312,-6,-8,-10,-25,1,2,-6,-5,1,1,11,2,0,2,1,2,7,6,3,11,6,3,2,1,5,1,1,-2,-14,2,0,4
1772819826.3941844,-6,-6,-8,-24,1,2,-6,-4,1,1,11,2,0,2,1,2,8,6,3,11,5,3,2,0,2,0,0,-3,-14,2,0,4
1772819826.3961375,-6,-3,-7,-21,2,3,-6,-4,1,1,11,1,0,2,1,2,8,6,3,10,4,3,1,0,0,0,-1,-3,-13,3,0,4
1772819826.3980906,-6,-1,-6,-19,3,4,-6,-3,1,1,11,0,0,1,1,2,7,6,2,10,3,2,0,-1,-2,-1,-2,-4,-12,3,1,4
1772819826.4000437,-6,1,-6,-16,4,4,-6,-2,1,1,10,0,0,1,1,2,7,5,2,8,2,2,-1,-2,-3,-1,-3,-4,-10,3,2,4
1772819826.4019969,-5,2,-6,-14,5,4,-6,-2,1,0,10,-1,-1,0,1,2,6,4,1,7,1,2,-1,-3,-4,0,-3,-3,-7,2,3,5
1772819826.40395,-5,3,-6,-11,6,4,-6,-1,1,0,9,-2,-1,-1,1,2,5,3,0,6,0,1,-2,-4,-4,0,-2,-3,-5,2,4,5
1772819826.405903,-5,3,-6,-9,7,4,-7,-1,1,0,7,-3,-1,-2,0,1,4,2,-1,4,-1,1,-1,-4,-4,1,-1,-2,-2,2,6,5
1772819826.4078562,-4,3,-7,-7,8,4,-7,-1,1,-1,6,-4,-2,-3,-1,0,2,1,-1,3,-2,1,-1,-5,-3,2,0,0,0,2,7,6
1772819826.4098094,-4,2,-9,-5,9,3,-8,-1,2,-1,4,-5,-2,-5,-2,-1,1,0,-2,1,-2,1,0,-4,0,4,2,1,3,3,9,7
1772819826.4117625,-3,0,-10,-4,10,3,-8,-1,2,-2,1,-6,-2,-6,-3,-2,-1,-2,-3,0,-2,2,1,-4,2,6,5,3,5,3,11,7
1772819826.4137156,-3,-1,-12,-3,11,2,-9,-1,2,-3,-1,-7,-2,-8,-5,-3,-3,-3,-3,-2,-2,2,3,-3,5,8,7,5,6,4,12,8
1772819826.4156687,-3,-2,-14,-2,11,1,-10,-2,2,-4,-4,-8,-3,-10,-7,-4,-4,-4,-4,-3,-1,3,4,-2,9,10,9,7,7,6,13,9
1772819826.4176219,-3,-3,-15,-2,11,0,-10,-2,2,-5,-7,-9,-3,-11,-8,-5,-6,-5,-4,-4,0,4,5,-1,12,11,11,8,8,7,14,9
1772819826.419575,-3,-4,-16,-2,11,0,-11,-2,2,-7,-9,-10,-3,-12,-10,-6,-6,-5,-4,-5,1,4,7,0,15,13,13,10,8,8,14,9
1772819826.421528,-4,-5,-17,-2,10,-1,-11,-3,2,-8,-11,-10,-2,-13,-11,-7,-7,-5,-3,-5,2,5,8,1,17,13,14,11,8,10,14,9
1772819826.4234812,-4,-5,-17,-2,9,-1,-11,-3,2,-9,-13,-11,-2,-14,-12,-7,-7,-4,-3,-4,3,5,8,2,18,13,14,12,8,11,13,9
1772819826.4254344,-5,-5,-17,-2,8,-1,-11,-4,1,-9,-13,-11,-2,-13,-12,-7,-6,-3,-2,-4,4,5,8,3,19,12,13,12,8,12,12,8
1772819826.4273875,-5,-5,-16,-2,7,-1,-10,-4,1,-10,-13,-11,-1,-13,-12,-7,-5,-2,-1,-3,5,6,8,4,19,11,11,12,7,12,10,7
1772819826.4293406,-6,-4,-15,-2,5,-1,-9,-4,0,-10,-13,-10,0,-12,-11,-5,-3,0,0,-1,6,5,7,4,17,8,9,12,7,12,8,5
1772819826.4312937,-6,-4,-14,-3,4,-1,-7,-5,-1,-10,-12,-9,0,-10,-10,-4,-1,2,1,0,7,5,6,4,15,6,7,11,6,11,6,4
1772819826.4332469,-7,-4,-13,-3,2,-1,-6,-5,-1,-10,-10,-8,1,-8,-8,-2,1,4,2,2,8,5,5,4,13,3,5,10,5,10,4,2
1772819826.4352,-7,-4,-11,-4,1,0,-4,-5,-2,-9,-7,-7,2,-6,-6,0,3,6,3,4,9,4,4,4,10,0,2,8,3,8,2,1
1772819826.437153,-7,-4,-10,-5,-1,0,-2,-5,-2,-8,-5,-5,2,-4,-4,2,5,7,4,6,9,4,2,3,8,-2,0,7,2,6,0,-1
1772819826.4391062,-7,-4,-10,-6,-2,0,-1,-6,-2,-7,-3,-3,3,-2,-2,4,7,8,4,7,9,3,1,2,5,-4,-1,5,1,3,-2,-2
1772819826.4410594,-7,-3,-9,-7,-2,0,1,-5,-2,-5,-1,-2,3,0,0,5,8,9,4,7,9,2,0,1,4,-6,-2,4,0,1,-3,-3
1772819826.4430125,-7,-3,-9,-8,-3,0,2,-5,-2,-4,1,0,3,1,1,6,9,9,3,8,8,2,-1,1,2,-7,-3,2,-1,-1,-3,-3
1772819826.4449656,-7,-2,-8,-8,-3,0,3,-5,-2,-2,3,1,3,2,2,7,9,8,3,7,7,1,-1,0,1,-7,-2,2,-2,-2,-4,-3
1772819826.4469187,-7,-2,-8,-8,-2,0,3,-4,-1,0,4,2,3,3,3,7,8,7,2,7,6,1,-1,-1,1,-7,-2,1,-3,-3,-3,-3
1772819826.4488719,-7,-2,-9,-9,-2,0,4,-3,0,1,4,3,3,4,3,6,7,6,1,5,5,0,-2,-1,1,-6,-1,1,-4,-4,-3,-2
1772819826.450825,-7,-1,-9,-9,-2,0,4,-3,1,2,4,4,3,4,3,5,6,5,0,4,4,0,-2,-2,2,-5,0,2,-4,-4,-2,-2
1772819826.452778,-7,-1,-9,-8,-1,-1,3,-2,2,3,4,5,3,4,2,4,4,3,-1,3,3,0,-1,-2,3,-4,2,2,-5,-4,-2,-1
1772819826.4547312,-7,-2,-10,-8,-1,-1,2,-1,3,4,3,5,3,5,2,3,3,2,-2,2,2,0,-1,-1,3,-2,3,3,-6,-3,-1,0
1772819826.4566844,-8,-3,-11,-8,0,-2,1,0,3,4,2,6,3,5,1,3,1,1,-2,1,1,0,-1,-1,4,-1,4,5,-7,-3,-1,1
1772819826.4586375,-8,-4,-12,-8,0,-2,0,0,4,4,2,6,3,5,1,2,1,1,-2,0,1,0,0,0,5,0,5,6,-7,-2,-1,2
1772819826.4605906,-8,-6,-13,-8,0,-3,-1,1,4,4,1,6,3,5,1,2,0,0,-2,-1,0,0,0,1,6,2,6,7,-7,-1,0,2
1772819826.4625437,-8,-8,-14,-7,0,-4,-2,1,4,3,1,5,3,5,1,2,0,0,-2,-1,0,0,1,1,7,3,6,8,-7,0,0,2
1772819826.4644969,-8,-10,-15,-7,0,-4,-3,1,3,2,0,5,3,4,2,2,0,1,-2,0,1,1,1,2,7,4,7,9,-6,1,0,2
1772819826.46645,-8,-12,-16,-7,-1,-5,-4,1,2,0,0,4,2,4,2,3,1,1,-1,0,1,1,2,3,8,5,7,10,-4,2,0,2
1772819826.468403,-8,-13,-17,-7,-1,-6,-5,1,1,-1,0,2,1,3,2,3,2,1,-1,0,1,1,2,3,8,5,7,11,-3,3,0,2
1772819826.4703562,-8,-13,-17,-7,-1,-6,-5,0,0,-2,0,1,0,2,3,4,2,2,0,1,2,1,3,4,9,6,8,12,-1,4,0,2
1772819826.4723094,-8,-13,-17,-7,-1,-6,-5,0,-2,-4,-1,-1,-1,1,3,4,3,2,0,1,2,1,3,4,9,6,7,13,1,5,0,1
1772819826.4742625,-7,-12,-17,-6,-1,-6,-4,-1,-4,-5,-1,-3,-3,-1,3,5,4,2,1,2,3,1,3,4,9,6,7,14,3,6,0,1
1772819826.4762156,-7,-11,-16,-5,-2,-6,-2,-1,-5,-6,-1,-4,-4,-2,2,5,4,2,1,2,4,0,4,3,10,5,7,14,4,7,0,0
1772819826.4781687,-6,-9,-15,-4,-2,-5,-1,-2,-6,-7,-1,-6,-6,-4,2,5,4,2,1,2,5,0,4,3,10,5,6,14,5,8,0,-1
1772819826.4801219,-6,-7,-13,-3,-2,-5,1,-3,-7,-7,-1,-8,-7,-5,1,4,4,2,1,2,6,0,4,3,10,4,5,14,6,9,0,-1
1772819826.482075,-5,-5,-12,-1,-2,-5,2,-3,-8,-7,-1,-9,-8,-7,1,4,4,2,1,2,7,0,4,3,10,3,4,14,5,9,0,-2
1772819826.484028,-5,-4,-10,1,-2,-4,3,-4,-8,-7,-1,-10,-9,-8,0,3,4,1,1,2,8,0,4,3,10,2,3,14,4,10,0,-2
1772819826.4859812,-4,-3,-9,2,-1,-4,4,-4,-8,-6,-1,-10,-9,-9,-1,2,3,1,1,3,9,0,4,4,10,1,2,13,3,11,-1,-2
1772819826.4879344,-4,-3,-8,4,-1,-3,4,-5,-8,-5,-1,-10,-9,-9,-1,2,3,1,1,3,9,0,4,4,10,1,2,12,1,11,-1,-2
1772819826.4898875,-3,-4,-7,6,-1,-3,4,-5,-8,-5,-1,-10,-10,-10,-2,1,3,1,1,3,10,0,4,4,10,0,1,12,-1,11,-1,-2
1772819826.4918406,-3,-5,-6,7,-1,-3,3,-5,-7,-4,-1,-9,-9,-10,-3,1,3,1,0,3,10,0,4,5,10,0,1,11,-3,11,-1,-2
1772819826.4937937,-2,-7,-5,8,-1,-2,2,-4,-6,-3,-1,-9,-9,-10,-3,0,3,1,-1,3,10,0,4,5,10,1,2,10,-4,11,-1,-1
1772819826.4957469,-2,-8,-4,10,0,-2,1,-4,-5,-2,-1,-8,-9,-10,-4,0,2,0,-2,3,9,0,3,5,10,2,2,10,-4,10,0,-1
1772819826.4977,-1,-10,-4,10,0,-1,-1,-3,-4,-2,-2,-7,-9,-10,-4,0,2,0,-3,3,8,-1,3,5,11,3,3,9,-4,10,0,0
1772819826.499653,-1,-12,-4,11,1,0,-2,-2,-4,-1,-2,-7,-9,-10,-5,-1,2,-1,-4,3,7,-1,3,4,11,4,4,9,-2,10,1,0
1772819826.5016062,-1,-13,-3,12,1,0,-4,-2,-3,-1,-2,-6,-10,-9,-5,-1,1,-1,-5,2,5,-2,2,4,12,4,5,10,0,10,2,1
1772819826.5035594,-1,-14,-3,13,1,1,-5,0,-2,-1,-3,-6,-10,-9,-6,-1,1,-2,-6,1,3,-3,1,3,12,5,5,10,2,10,2,1
1772819826.5055125,-1,-14,-4,13,2,2,-5,1,-2,-1,-3,-5,-10,-9,-6,-1,0,-3,-7,1,1,-3,0,2,13,6,6,10,5,10,3,1
1772819826.5074656,-1,-14,-4,13,2,2,-5,2,-1,-1,-3,-5,-10,-8,-6,-1,0,-3,-8,0,-1,-4,0,1,13,6,6,11,8,11,3,1
1772819826.5094187,-2,-14,-5,13,2,2,-5,2,-1,-1,-4,-5,-9,-7,-5,-1,-1,-3,-9,-1,-3,-4,-1,0,13,6,5,11,10,12,3,1
1772819826.5113719,-2,-14,-6,13,2,2,-4,3,-1,-1,-4,-4,-9,-7,-5,-1,-1,-3,-9,-1,-4,-4,-2,-1,12,5,5,12,12,12,3,1
1772819826.513325,-3,-14,-6,12,2,1,-3,4,-1,-2,-5,-4,-8,-5,-4,-1,0,-2,-8,-1,-4,-4,-2,-1,11,4,4,12,13,13,3,1
1772819826.515278,-3,-14,-7,11,2,0,-1,4,-1,-2,-6,-3,-8,-4,-3,0,0,-2,-7,-1,-4,-4,-2,-2,10,4,2,12,14,14,2,1
1772819826.5172312,-3,-15,-8,9,2,0,0,3,-1,-2,-6,-3,-7,-3,-2,1,1,-1,-6,-1,-4,-4,-2,-2,9,3,1,11,13,14,2,1
1772819826.5191844,-3,-16,-8,7,2,-1,1,3,-1,-3,-7,-3,-6,-2,-1,2,2,0,-5,-1,-3,-3,-2,-2,8,2,0,11,12,15,1,1
1772819826.5211375,-3,-17,-8,5,2,-2,1,2,-1,-3,-7,-2,-5,0,1,3,3,1,-4,0,-2,-2,-2,-2,6,1,-1,10,11,15,1,1
1772819826.5230906,-3,-18,-8,2,2,-3,2,1,-2,-3,-7,-2,-5,1,2,4,4,2,-3,1,0,-2,-1,-2,5,1,-2,9,9,14,1,1
1772819826.5250437,-3,-19,-8,-1,1,-3,2,-1,-2,-4,-6,-2,-4,2,4,6,5,3,-2,1,1,-1,-1,-2,4,1,-2,9,7,13,1,1
1772819826.5269969,-2,-19,-7,-3,1,-3,2,-2,-3,-4,-5,-2,-4,3,5,7,6,3,-1,2,2,-1,-1,-3,3,0,-2,8,6,12,0,1
1772819826.52895,-2,-19,-6,-5,0,-2,1,-3,-3,-4,-4,-2,-4,3,6,8,7,4,-1,2,3,-1,0,-3,3,0,-2,7,4,12,0,0
1772819826.530903,-2,-19,-4,-7,0,-2,1,-4,-3,-4,-3,-1,-4,4,7,9,7,4,-1,2,3,-1,0,-3,3,0,-2,7,3,11,0,0
1772819826.5328562,-2,-18,-3,-8,0,-1,1,-5,-4,-3,-1,-1,-4,4,8,10,7,3,-2,2,3,-1,0,-3,3,0,-2,7,3,10,0,-1
1772819826.5348094,-2,-17,-2,-8,-1,0,0,-6,-4,-3,1,-1,-5,4,8,10,7,2,-2,1,3,-2,0,-3,4,0,-1,6,2,10,0,-1
1772819826.5367625,-2,-15,-1,-8,-1,1,0,-5,-4,-2,2,-1,-5,3,8,9,6,1,-4,0,2,-2,0,-3,5,0,0,6,1,10,0,-2
1772819826.5387156,-2,-13,0,-7,-1,2,1,-5,-4,-1,4,-1,-6,2,7,9,4,-1,-5,-1,1,-3,0,-3,6,0,0,7,0,11,0,-2
1772819826.5406687,-2,-11,0,-5,-1,4,1,-4,-3,0,4,-1,-7,1,6,8,3,-2,-6,-3,-1,-3,-1,-3,7,1,1,7,0,12,0,-2
1772819826.5426219,-1,-9,1,-3,0,5,2,-2,-3,0,4,-1,-8,0,4,6,1,-4,-8,-4,-2,-3,-1,-3,8,1,2,7,-1,14,1,-2
1772819826.544575,-1,-8,1,-1,1,6,2,-1,-2,1,4,-2,-8,-2,2,4,-2,-6,-9,-6,-3,-3,-1,-3,9,2,3,8,-2,16,2,-1
1772819826.546528,0,-6,1,2,2,7,3,1,-1,1,2,-2,-9,-3,0,2,-4,-8,-10,-7,-4,-3,-1,-3,10,3,3,9,-2,17,3,0
1772819826.5484812,0,-5,1,5,3,7,3,3,-1,1,1,-3,-9,-5,-2,0,-6,-9,-11,-9,-5,-3,-1,-2,10,4,4,9,-2,19,4,1
1772819826.5504344,1,-4,1,7,4,8,4,4,0,1,-1,-4,-10,-7,-4,-3,-9,-10,-11,-10,-6,-3,0,-2,9,4,4,10,-2,20,5,2
1772819826.5523875,2,-3,1,8,6,8,4,5,0,1,-3,-5,-10,-8,-6,-5,-10,-11,-11,-10,-6,-2,0,-2,8,5,4,11,-1,21,5,4
1772819826.5543406,4,-2,2,9,7,9,4,5,1,1,-5,-5,-10,-10,-8,-7,-11,-12,-11,-10,-5,-2,0,-1,7,5,4,11,1,21,6,5
1772819826.5562937,5,-1,3,9,8,9,4,5,1,1,-6,-6,-10,-11,-10,-8,-12,-12,-10,-10,-5,-1,1,-1,5,5,3,12,3,20,7,5
1772819826.5582469,6,-1,4,9,8,10,3,5,1,0,-7,-7,-10,-12,-10,-9,-12,-12,-9,-9,-4,0,1,0,3,4,2,12,5,18,7,6
1772819826.5602,7,-1,6,8,8,10,3,4,1,0,-7,-7,-9,-12,-11,-10,-12,-11,-8,-8,-3,0,1,1,1,3,0,12,8,16,6,6
1772819826.562153,8,-1,7,6,8,10,3,3,0,0,-7,-8,-9,-13,-11,-10,-11,-10,-7,-6,-1,1,1,2,-1,2,-1,11,10,14,6,5
1772819826.5641062,8,-2,8,4,7,10,3,1,0,0,-6,-7,-9,-12,-10,-9,-9,-9,-6,-5,0,1,1,3,-2,0,-3,11,12,11,5,5
1772819826.5660594,8,-3,8,2,6,10,3,0,0,1,-5,-7,-8,-12,-9,-8,-8,-7,-5,-3,1,1,1,4,-3,-1,-4,10,14,9,4,4
1772819826.5680125,8,-4,8,-1,5,9,3,-2,-1,1,-3,-6,-8,-11,-8,-7,-6,-6,-4,-1,2,1,1,5,-4,-3,-5,9,14,7,3,3
1772819826.5699656,7,-5,7,-3,4,9,4,-3,-1,1,-2,-5,-7,-9,-7,-6,-4,-4,-3,0,3,1,1,6,-4,-4,-6,8,14,6,2,2
1772819826.5719187,7,-7,6,-5,3,8,4,-4,-1,2,0,-4,-7,-8,-5,-4,-2,-2,-3,1,3,0,1,6,-4,-4,-6,7,12,5,1,1
1772819826.5738719,5,-9,4,-7,2,7,5,-4,-1,2,0,-3,-7,-7,-4,-2,0,-1,-2,2,3,0,1,7,-3,-4,-5,6,10,4,0,0
1772819826.575825,4,-12,2,-8,2,6,6,-4,-1,3,1,-2,-6,-5,-3,-1,1,0,-2,2,3,0,0,7,-2,-4,-4,5,7,5,0,0
1772819826.577778,3,-14,0,-8,1,5,6,-4,-1,3,1,0,-6,-4,-2,1,2,1,-2,2,2,-1,0,6,-1,-4,-3,5,5,5,0,0
1772819826.5797312,2,-16,-2,-8,1,4,7,-3,-1,3,1,1,-5,-2,-1,2,3,2,-3,1,1,-1,0,5,1,-3,-2,5,2,6,0,0
1772819826.5816844,0,-18,-3,-7,1,3,7,-2,-1,3,1,2,-5,-1,0,3,4,3,-3,0,0,-1,0,3,2,-2,0,5,0,7,1,1
1772819826.5836375,-1,-20,-4,-7,1,2,8,-2,0,2,0,3,-4,0,0,4,4,4,-3,-1,-2,-2,0,1,3,-1,1,5,-1,7,1,1
1772819826.5855906,-2,-22,-5,-6,1,2,8,-1,0,2,0,3,-3,1,0,5,4,4,-4,-2,-3,-2,0,-1,3,0,2,5,-2,8,1,2
1772819826.5875437,-2,-23,-5,-4,2,1,8,-1,1,2,0,4,-2,2,1,5,4,4,-4,-3,-4,-2,-1,-3,3,1,2,5,-2,8,2,3
1772819826.5894969,-3,-24,-5,-3,1,1,8,0,1,1,1,4,-1,3,1,6,4,4,-4,-3,-5,-2,-1,-5,3,1,3,6,-1,8,2,3
1772819826.59145,-3,-25,-4,-3,1,1,7,0,1,1,2,5,0,4,1,6,3,4,-4,-4,-6,-2,-1,-6,2,1,2,6,0,8,2,3
1772819826.593403,-3,-25,-3,-2,1,1,7,-1,1,1,3,5,1,4,2,6,3,3,-4,-4,-7,-3,-2,-7,1,0,2,6,2,7,2,3
1772819826.5953562,-4,-25,-2,-1,1,2,6,-1,2,1,4,5,2,5,3,6,3,3,-5,-5,-8,-3,-3,-8,0,0,1,5,3,7,2,3
1772819826.5973094,-4,-25,-1,0,0,2,6,-2,2,1,6,5,3,6,4,7,3,3,-5,-4,-8,-3,-3,-8,-1,-1,0,4,4,6,1,2
1772819826.5992625,-3,-24,-1,1,0,3,5,-2,2,1,7,6,3,6,5,7,3,2,-5,-4,-8,-3,-4,-7,-2,-2,-1,3,4,5,1,2
1772819826.6012156,-3,-23,0,2,0,4,5,-2,2,2,9,6,4,7,6,7,3,2,-5,-4,-8,-3,-5,-6,-3,-3,-2,2,4,4,1,1
1772819826.6031687,-3,-21,0,3,0,4,4,-2,2,2,10,6,4,7,6,7,3,1,-5,-3,-8,-3,-5,-6,-4,-4,-3,0,2,4,0,1
1772819826.6051219,-2,-19,0,5,0,5,3,-2,2,2,10,6,4,7,7,8,3,1,-5,-2,-8,-3,-6,-5,-5,-5,-3,-2,0,3,0,0
1772819826.607075,-1,-17,0,6,0,5,3,-2,2,3,11,6,4,7,7,8,4,1,-5,-2,-8,-3,-6,-4,-6,-6,-4,-3,-3,2,-1,0
1772819826.609028,-1,-15,0,8,0,5,3,-1,3,3,11,6,4,7,8,8,4,1,-4,-1,-8,-3,-7,-3,-7,-6,-4,-5,-6,2,-1,0
1772819826.6109812,0,-13,0,10,1,5,3,0,3,3,10,5,4,6,7,8,4,1,-4,0,-8,-3,-7,-2,-7,-7,-4,-6,-9,2,-2,0
1772819826.6129344,1,-11,0,12,1,5,3,0,3,3,9,5,3,5,7,8,5,1,-4,1,-7,-2,-7,-2,-7,-7,-4,-7,-12,1,-2,1
1772819826.6148875,2,-10,-1,14,1,5,3,1,3,3,8,4,3,3,6,7,5,1,-4,1,-7,-1,-6,-1,-7,-7,-4,-7,-15,1,-3,1
1772819826.6168406,2,-8,-1,15,1,5,3,1,3,2,7,3,2,2,5,6,4,1,-3,2,-6,-1,-6,-1,-7,-6,-3,-7,-16,1,-3,2
1772819826.6187937,3,-8,-1,16,1,5,3,1,3,2,6,2,1,0,3,6,4,0,-3,2,-5,0,-5,0,-6,-5,-2,-7,-16,1,-3,3
1772819826.6207469,3,-8,0,17,1,5,3,0,2,1,5,0,0,-3,2,4,3,0,-3,2,-5,1,-3,1,-5,-4,-1,-6,-14,2,-3,4
1772819826.6227,4,-8,0,18,1,5,3,-1,2,-1,4,-1,-1,-5,0,3,2,-1,-4,2,-4,1,-2,2,-4,-2,0,-4,-12,2,-2,5
1772819826.624653,4,-9,0,18,1,5,2,-1,1,-2,2,-3,-2,-7,-2,2,0,-3,-4,2,-3,1,-1,3,-2,0,1,-2,-7,2,-1,6
1772819826.6266062,5,-10,0,18,1,5,2,-3,0,-4,1,-5,-3,-9,-5,0,-1,-4,-5,2,-2,2,1,5,-1,2,3,-1,-2,3,0,6
1772819826.6285594,5,-11,0,18,1,5,1,-4,-1,-5,0,-7,-5,-11,-6,-2,-3,-6,-6,1,-1,1,2,6,0,4,5,1,3,4,2,7
1772819826.6305125,5,-11,0,18,2,5,1,-5,-2,-6,-1,-8,-6,-13,-8,-3,-5,-8,-7,0,-1,1,3,6,2,6,6,3,8,5,3,7
1772819826.6324656,6,-12,0,18,3,6,0,-5,-2,-7,-1,-9,-7,-14,-10,-4,-7,-10,-8,0,-1,1,3,7,3,8,8,4,13,5,5,7
1772819826.6344187,7,-11,0,18,3,6,0,-6,-2,-8,-2,-10,-8,-14,-11,-5,-8,-11,-10,-1,-1,0,3,6,4,10,9,5,17,6,7,7
1772819826.6363719,7,-11,1,18,4,7,0,-5,-2,-8,-2,-10,-8,-14,-12,-6,-9,-13,-11,-2,-1,-1,3,6,4,10,10,6,19,6,8,7
1772819826.638325,8,-10,1,18,4,8,-1,-5,-2,-7,-2,-9,-8,-13,-12,-7,-10,-14,-13,-3,-2,-1,2,4,4,11,10,6,20,7,9,7
1772819826.640278,9,-8,2,19,5,8,-1,-4,-1,-7,-2,-8,-8,-11,-12,-7,-11,-14,-14,-5,-3,-2,1,3,3,10,10,6,19,7,10,6
1772819826.6422312,9,-7,2,19,6,9,-1,-2,0,-6,-1,-7,-7,-10,-11,-7,-12,-15,-15,-6,-4,-2,-1,0,3,9,10,6,17,7,10,6
1772819826.6441844,9,-5,2,20,6,10,-1,0,1,-4,0,-5,-5,-7,-10,-6,-12,-15,-15,-7,-5,-2,-2,-2,2,8,9,5,14,6,9,6
1772819826.6461375,9,-4,2,20,6,10,0,2,2,-3,1,-3,-4,-5,-10,-6,-12,-14,-15,-8,-6,-2,-4,-4,0,6,8,3,10,6,8,5
1772819826.6480906,9,-3,3,21,7,11,0,4,4,-2,3,-1,-2,-3,-9,-6,-12,-14,-15,-8,-7,-2,-5,-6,-1,4,6,2,6,5,7,5
1772819826.6500437,8,-2,2,21,7,11,0,6,5,-1,4,1,0,-1,-8,-5,-12,-13,-14,-9,-8,-1,-6,-8,-2,2,5,0,2,5,6,5
1772819826.6519969,7,-2,2,21,7,11,0,7,6,0,6,2,2,0,-7,-5,-12,-12,-13,-9,-8,0,-6,-10,-3,0,3,-1,-1,4,4,5
1772819826.65395,5,-2,1,21,6,11,0,8,7,1,7,3,4,1,-6,-4,-12,-11,-11,-9,-8,0,-6,-10,-3,-1,2,-3,-3,3,3,5
1772819826.655903,4,-2,1,20,6,10,1,9,7,1,8,4,5,2,-5,-4,-11,-10,-10,-9,-7,1,-6,-10,-4,-2,1,-4,-5,2,2,5
1772819826.6578562,2,-3,0,19,5,10,1,8,7,1,10,4,6,2,-4,-4,-10,-9,-8,-8,-6,2,-5,-10,-3,-3,0,-5,-6,2,1,5
1772819826.6598094,0,-3,-1,18,4,9,1,7,6,1,10,4,7,2,-4,-3,-9,-8,-7,-7,-5,2,-4,-9,-3,-3,-1,-5,-6,2,0,5
1772819826.6617625,-2,-4,-2,17,3,9,2,6,5,0,11,4,6,1,-4,-3,-8,-7,-5,-6,-3,3,-3,-7,-2,-3,-1,-5,-5,2,-1,4
1772819826.6637156,-3,-4,-3,15,1,8,3,4,4,0,11,3,6,1,-3,-2,-7,-6,-4,-5,-2,2,-2,-5,-1,-3,-1,-5,-4,2,-2,4
1772819826.6656687,-4,-4,-3,13,0,7,4,1,2,-1,11,2,5,0,-3,-1,-6,-5,-3,-4,0,2,-1,-3,0,-3,-1,-5,-2,2,-2,3
1772819826.6676219,-4,-3,-3,11,-2,6,5,-1,1,-1,11,1,4,-1,-2,0,-5,-5,-3,-3,1,1,-1,-1,1,-3,-1,-4,-1,3,-3,1
1772819826.669575,-4,-3,-3,10,-3,6,6,-3,-1,-1,11,0,3,-3,-2,0,-3,-4,-3,-2,2,0,-1,1,1,-2,0,-2,0,4,-3,0
1772819826.671528,-3,-2,-3,8,-4,5,7,-4,-2,-1,10,-1,1,-4,-2,1,-2,-4,-4,-1,2,-1,-1,2,2,-2,1,-1,1,5,-3,-1
1772819826.6734812,-2,-1,-2,7,-5,4,8,-5,-2,-1,9,-2,0,-5,-2,2,-1,-4,-5,0,2,-2,-2,4,3,-2,1,1,2,6,-3,-2
1772819826.6754344,0,0,-2,7,-5,4,9,-6,-3,-1,8,-3,-1,-6,-2,3,0,-4,-6,0,1,-3,-2,5,3,-2,2,2,2,7,-3,-3
1772819826.6773875,2,0,-1,7,-4,3,9,-5,-3,0,7,-4,-3,-7,-2,3,0,-4,-8,1,0,-4,-3,6,3,-2,3,3,3,8,-3,-3
1772819826.6793406,3,1,0,7,-3,3,9,-4,-3,0,6,-5,-4,-9,-2,3,0,-4,-9,1,-1,-5,-5,6,3,-2,3,5,3,8,-2,-3
1772819826.6812937,5,2,1,8,-2,3,9,-2,-3,1,5,-6,-5,-10,-3,3,0,-5,-10,0,-2,-6,-6,6,2,-2,4,5,4,9,-1,-3
1772819826.6832469,6,2,1,9,0,2,8,0,-2,1,4,-6,-5,-11,-4,2,0,-6,-12,0,-3,-7,-6,6,2,-2,4,6,4,9,0,-3
1772819826.6852,7,3,2,10,1,2,6,2,-2,1,3,-7,-6,-12,-5,1,-1,-6,-13,0,-3,-7,-7,5,2,-1,5,6,4,10,1,-2
1772819826.687153,7,3,2,11,3,2,5,4,-1,1,2,-8,-6,-13,-6,0,-2,-7,-13,0,-4,-7,-7,5,1,-1,5,6,4,10,3,-1
1772819826.6891062,8,4,3,12,5,2,3,6,-1,0,2,-9,-6,-14,-7,-1,-3,-7,-13,0,-4,-6,-7,4,1,-1,5,6,5,10,4,0
1772819826.6910594,8,5,3,13,6,2,1,7,-1,-1,1,-9,-6,-15,-8,-2,-4,-8,-12,0,-3,-5,-6,4,1,0,4,5,5,10,5,1
1772819826.6930125,8,5,4,13,7,2,-1,7,0,-2,1,-10,-5,-16,-9,-4,-4,-8,-11,0,-2,-4,-6,3,1,0,4,5,6,10,5,2
1772819826.6949656,7,5,5,14,8,2,-3,7,0,-3,1,-11,-5,-16,-10,-5,-5,-8,-10,1,-1,-3,-5,2,1,0,3,3,6,9,6,3
1772819826.6969187,7,5,6,13,8,3,-4,7,-1,-4,1,-11,-4,-16,-11,-7,-6,-8,-9,1,1,-2,-4,2,1,0,2,2,7,9,6,4
1772819826.6988719,7,5,7,13,8,4,-6,6,-1,-5,1,-11,-3,-15,-12,-8,-6,-7,-7,2,2,0,-2,1,1,0,1,1,8,8,6,5
1772819826.700825,8,5,8,13,8,5,-7,5,-1,-6,1,-11,-2,-15,-13,-9,-7,-7,-6,2,3,1,-1,1,0,1,0,0,8,8,5,5
1772819826.702778,8,4,9,12,7,5,-7,3,-1,-7,0,-11,-2,-14,-14,-10,-7,-6,-4,2,4,2,0,1,0,1,-1,-1,9,7,5,6
1772819826.7047312,8,3,9,12,6,6,-7,2,0,-8,-1,-10,-1,-13,-14,-11,-8,-6,-3,2,5,3,0,1,0,1,-1,-2,9,6,5,6
1772819826.7066844,7,3,10,11,6,6,-7,1,0,-9,-2,-10,1,-11,-14,-11,-8,-5,-2,2,5,4,1,1,0,1,-1,-3,9,5,5,6
1772819826.7086375,7,2,10,10,5,6,-6,0,0,-9,-4,-9,2,-10,-14,-12,-8,-5,-1,2,5,4,2,1,0,2,-1,-3,9,4,5,6
1772819826.7105906,6,1,9,10,4,6,-6,-1,1,-10,-6,-8,3,-8,-14,-12,-8,-4,-1,1,5,5,2,2,1,2,-1,-3,9,3,5,7
1772819826.7125437,5,1,9,9,4,6,-5,-1,1,-10,-8,-7,4,-7,-14,-12,-9,-4,0,0,4,5,2,2,1,3,0,-2,9,2,4,7
1772819826.7144969,4,0,8,8,3,5,-5,-1,2,-10,-10,-6,5,-5,-13,-11,-9,-3,0,-1,3,5,2,3,2,3,0,-1,9,1,4,7
1772819826.71645,2,0,7,7,3,3,-4,-1,3,-10,-12,-5,7,-4,-12,-11,-9,-3,1,-2,3,5,2,3,3,3,1,0,9,1,4,7
1772819826.718403,1,-1,5,6,2,2,-4,0,3,-10,-14,-4,8,-3,-12,-10,-9,-3,1,-3,2,6,3,4,4,3,1,2,9,1,4,6
1772819826.7203562,0,-1,4,4,2,1,-4,0,4,-10,-16,-3,9,-2,-11,-9,-9,-2,1,-4,2,5,3,4,5,3,2,3,9,1,3,6
1772819826.7223094,0,-2,4,3,2,0,-4,0,4,-10,-17,-3,9,-1,-10,-9,-9,-2,1,-4,2,5,3,4,6,3,2,5,9,2,3,6
1772819826.7242625,-1,-2,3,1,2,-1,-4,1,4,-10,-18,-2,9,0,-9,-8,-9,-3,1,-5,2,5,3,4,6,2,2,6,8,3,2,6
1772819826.7262156,0,-2,3,0,1,-1,-4,1,4,-9,-19,-2,9,0,-8,-7,-9,-3,0,-5,2,5,2,4,7,2,2,7,8,4,2,5
1772819826.7281687,0,-2,3,-1,1,-2,-4,2,3,-9,-19,-2,9,1,-7,-6,-8,-3,0,-5,3,4,2,4,7,1,2,7,7,5,2,5
1772819826.7301219,2,-2,4,-2,2,-2,-5,2,3,-8,-19,-1,8,1,-6,-5,-8,-3,-1,-5,3,3,2,4,7,0,2,7,6,6,1,4
1772819826.732075,3,-1,4,-2,2,-2,-5,3,2,-8,-18,-1,7,1,-5,-4,-7,-4,-1,-5,3,3,1,3,6,-1,2,7,6,7,1,3
1772819826.734028,4,-1,5,-1,2,-1,-4,3,1,-7,-16,-1,6,2,-4,-2,-7,-4,-2,-5,3,2,0,2,5,-2,2,6,5,7,1,2
1772819826.7359812,5,-1,6,-1,2,-1,-4,4,0,-7,-14,0,5,3,-3,-1,-6,-4,-3,-5,3,1,0,2,4,-3,1,5,4,7,1,1
1772819826.7379344,6,0,7,1,2,-1,-4,4,-1,-6,-12,0,3,3,-2,1,-5,-4,-4,-5,2,0,-1,1,3,-4,1,3,2,7,1,0
1772819826.7398875,6,0,7,2,2,-1,-3,4,-1,-5,-9,1,2,5,0,3,-3,-3,-4,-4,1,-1,-2,0,2,-5,0,2,1,5,1,-1
1772819826.7418406,6,0,7,3,1,-1,-2,4,-2,-4,-6,2,1,6,2,4,-2,-2,-5,-4,1,-2,-3,0,1,-6,0,0,0,4,0,-3
1772819826.7437937,5,-1,7,4,1,-1,-1,4,-3,-3,-3,3,1,7,3,6,0,-2,-5,-3,0,-3,-4,-1,0,-7,-1,0,-1,1,-1,-4
1772819826.7457469,4,-2,7,5,0,-2,-1,4,-3,-2,1,5,0,9,5,8,1,-1,-5,-3,-1,-3,-4,-1,-1,-8,-1,-1,-2,-1,-2,-5
1772819826.7477,2,-3,6,6,-2,-2,0,4,-3,-1,4,6,0,10,7,9,2,0,-5,-2,-2,-3,-5,-2,-1,-9,-1,-1,-3,-3,-4,-6
1772819826.749653,0,-4,5,5,-3,-3,1,4,-3,0,7,8,0,11,8,10,3,1,-4,-2,-2,-3,-5,-2,-1,-9,-1,0,-3,-5,-5,-7
1772819826.7516062,-2,-6,4,4,-5,-3,2,4,-2,1,10,9,1,12,9,11,4,1,-4,-2,-3,-4,-5,-2,-1,-9,-1,1,-4,-7,-7,-7
1772819826.7535594,-4,-8,3,3,-6,-4,3,3,-2,3,13,10,1,12,10,12,5,2,-4,-2,-3,-3,-4,-3,-1,-9,-1,2,-4,-8,-8,-7
1772819826.7555125,-5,-9,1,1,-7,-4,3,3,-1,4,15,11,1,13,11,12,5,2,-3,-2,-3,-3,-4,-3,0,-8,-1,4,-4,-8,-9,-7
1772819826.7574656,-6,-11,0,-2,-8,-4,3,3,-1,5,16,11,1,13,11,11,4,1,-3,-2,-3,-3,-4,-4,1,-7,0,5,-3,-8,-10,-7
1772819826.7594187,-6,-12,0,-4,-9,-4,2,3,0,6,17,11,2,12,11,11,4,1,-3,-2,-3,-3,-3,-4,2,-6,0,7,-3,-7,-11,-6
1772819826.7613719,-6,-12,-1,-7,-9,-4,2,3,0,7,17,11,2,12,10,10,4,1,-4,-3,-3,-3,-3,-4,2,-5,0,8,-2,-5,-11,-5
1772819826.763325,-5,-13,-2,-9,-9,-4,1,3,0,7,17,11,1,11,10,10,3,1,-4,-3,-3,-4,-3,-4,3,-5,0,9,-1,-4,-11,-5
1772819826.765278,-5,-13,-2,-11,-8,-4,0,2,0,7,16,10,1,11,10,9,3,0,-4,-3,-3,-4,-4,-3,3,-4,0,10,0,-2,-10,-4
1772819826.7672312,-4,-13,-2,-12,-7,-4,-2,2,0,7,15,9,1,11,10,9,4,1,-5,-2,-2,-5,-4,-2,3,-4,0,10,2,0,-9,-4
1772819826.7691844,-3,-12,-3,-12,-7,-4,-3,1,-1,6,14,9,0,11,10,9,4,1,-5,-2,-2,-5,-5,-1,3,-5,-1,11,3,2,-8,-5
1772819826.7711375,-3,-12,-3,-11,-6,-5,-4,1,-2,5,13,8,0,11,10,10,5,2,-5,-1,-1,-6,-6,0,2,-6,-2,11,4,3,-7,-5
1772819826.7730906,-4,-11,-3,-10,-6,-5,-5,-1,-3,3,11,7,0,12,11,11,7,3,-5,1,0,-6,-7,1,2,-7,-3,11,4,4,-7,-6
1772819826.7750437,-5,-11,-3,-9,-5,-5,-6,-2,-4,1,10,6,0,13,12,12,9,5,-4,2,0,-7,-7,3,1,-8,-4,10,5,4,-6,-8
1772819826.7769969,-6,-11,-3,-7,-5,-5,-6,-3,-5,-1,10,5,-1,14,13,13,11,7,-3,4,1,-7,-8,5,0,-10,-5,10,5,4,-6,-9
1772819826.77895,-7,-10,-3,-5,-6,-5,-7,-5,-6,-3,9,5,-1,15,14,14,13,8,-2,6,2,-7,-8,6,-1,-11,-7,10,5,4,-6,-10
1772819826.780903,-9,-10,-3,-4,-6,-6,-8,-6,-7,-4,8,4,0,16,15,15,14,10,-1,7,2,-6,-8,8,-2,-13,-8,9,5,3,-5,-11
1772819826.7828562,-10,-10,-3,-3,-6,-6,-8,-7,-8,-6,8,4,0,17,16,16,15,11,0,9,2,-6,-8,9,-2,-13,-9,9,5,2,-5,-12
1772819826.7848094,-11,-10,-3,-3,-6,-7,-8,-8,-8,-7,7,4,1,18,16,16,16,11,1,9,2,-5,-7,10,-3,-13,-9,9,5,2,-5,-12
1772819826.7867625,-12,-9,-2,-3,-7,-7,-9,-9,-8,-8,7,4,1,18,16,16,15,11,2,9,2,-4,-6,10,-3,-13,-9,9,4,1,-5,-11
1772819826.7887156,-13,-9,-2,-4,-6,-8,-9,-9,-7,-9,7,4,2,17,15,15,14,11,3,9,2,-3,-5,10,-3,-11,-9,9,4,1,-5,-10
1772819826.7906687,-13,-9,-1,-6,-6,-8,-9,-9,-6,-9,6,4,2,17,14,13,13,10,4,8,1,-2,-4,9,-2,-10,-8,8,3,1,-5,-8
1772819826.7926219,-12,-9,-1,-8,-6,-8,-9,-8,-5,-8,6,4,3,16,12,11,10,8,4,6,0,0,-2,8,-2,-7,-6,8,3,1,-4,-6
1772819826.794575,-11,-8,0,-11,-5,-8,-9,-7,-3,-7,6,4,3,14,10,9,7,6,4,4,-1,1,-1,7,-1,-5,-4,8,2,1,-3,-3
1772819826.796528,-10,-9,0,-14,-4,-8,-8,-6,-1,-6,6,5,4,13,8,6,4,4,3,1,-2,2,1,6,0,-2,-2,8,2,1,-2,-1
1772819826.7984812,-8,-9,1,-16,-3,-7,-8,-5,0,-5,5,5,4,11,6,4,0,1,2,-1,-3,3,3,5,2,1,0,8,2,2,-1,2
1772819826.8004344,-6,-10,1,-18,-2,-6,-7,-4,2,-4,5,5,4,9,4,1,-3,-1,1,-4,-4,3,4,3,3,4,2,9,2,3,0,5
1772819826.8023875,-4,-11,1,-20,-1,-5,-7,-3,3,-3,5,5,4,8,1,-1,-6,-3,0,-6,-5,4,5,2,5,6,4,9,2,3,1,7
1772819826.8043406,-3,-13,1,-22,0,-4,-6,-2,4,-2,4,6,4,7,0,-3,-9,-6,-1,-8,-6,4,6,1,6,8,6,10,3,4,3,8
1772819826.8062937,-1,-15,1,-22,1,-3,-5,-1,4,-1,4,6,3,6,-2,-5,-11,-7,-2,-9,-6,4,6,0,7,9,8,11,4,5,4,9
1772819826.8082469,1,-17,0,-22,2,-2,-5,0,5,0,3,6,3,5,-3,-6,-12,-9,-3,-10,-7,4,7,-1,8,10,9,11,5,5,5,9
1772819826.8102,2,-19,0,-21,2,-1,-4,1,5,0,3,6,2,5,-3,-7,-13,-10,-4,-11,-7,3,6,-2,8,10,10,12,6,6,6,9
1772819826.812153,3,-21,-1,-20,3,-1,-3,1,4,1,3,6,2,5,-3,-7,-13,-10,-5,-11,-7,2,6,-3,8,10,11,13,7,6,6,8
1772819826.8141062,4,-23,-2,-18,3,-1,-2,2,4,1,3,6,1,6,-3,-6,-13,-10,-5,-10,-7,1,5,-3,8,9,10,13,8,7,7,6
1772819826.8160594,4,-24,-3,-16,3,-1,0,2,3,1,4,7,1,7,-2,-6,-12,-10,-6,-9,-7,0,4,-4,7,7,9,12,9,7,6,4
1772819826.8180125,3,-24,-3,-13,3,-2,1,3,3,2,5,7,1,8,0,-4,-11,-9,-6,-8,-7,-1,2,-4,5,6,8,12,9,7,6,2
1772819826.8199656,2,-24,-4,-11,2,-3,3,4,3,2,6,8,1,10,1,-3,-9,-8,-6,-7,-7,-2,0,-4,4,3,6,11,9,7,5,0
1772819826.8219187,0,-24,-5,-10,2,-4,5,4,2,3,7,9,2,12,3,-1,-7,-6,-6,-5,-7,-2,-1,-4,2,1,3,10,8,7,4,-2
1772819826.8238719,-2,-23,-6,-9,1,-5,7,5,2,4,9,10,3,14,5,0,-5,-5,-5,-4,-7,-3,-3,-4,0,-1,1,8,7,6,2,-4
1772819826.825825,-5,-22,-6,-8,0,-6,8,5,3,5,11,12,4,16,7,2,-2,-3,-4,-2,-7,-4,-5,-4,-2,-4,-2,7,6,6,1,-5
1772819826.827778,-8,-21,-7,-9,-1,-7,10,6,3,6,13,13,5,17,9,4,0,-1,-3,0,-7,-4,-6,-3,-4,-6,-4,6,4,5,-1,-7
1772819826.8297312,-10,-21,-8,-9,-2,-8,11,6,3,7,15,14,6,19,11,5,2,1,-2,1,-7,-4,-7,-2,-5,-8,-6,5,2,4,-3,-8
1772819826.8316844,-13,-20,-9,-11,-3,-9,12,6,3,8,17,15,7,20,13,7,4,3,-1,2,-7,-4,-8,-2,-6,-9,-8,4,0,3,-5,-8
1772819826.8336375,-15,-21,-11,-12,-5,-10,13,6,4,8,18,16,8,22,14,8,6,5,0,3,-7,-4,-8,-1,-6,-10,-9,3,-3,2,-7,-9
1772819826.8355906,-17,-21,-12,-14,-6,-11,13,5,4,8,20,17,9,23,16,9,8,7,1,4,-7,-4,-8,0,-6,-10,-9,3,-5,1,-8,-9
1772819826.8375437,-18,-22,-14,-15,-7,-12,12,4,4,8,21,18,10,24,17,11,9,8,2,5,-7,-4,-8,1,-5,-10,-8,2,-7,0,-9,-9
1772819826.8394969,-19,-23,-16,-16,-8,-13,12,2,3,8,22,18,11,24,18,12,11,10,3,6,-7,-5,-8,1,-4,-10,-7,2,-8,-1,-9,-9
1772819826.84145,-19,-25,-17,-17,-9,-14,10,1,2,7,22,18,11,25,19,13,12,11,4,7,-6,-5,-8,2,-3,-9,-6,3,-9,-2,-9,-9
1772819826.843403,-18,-26,-18,-17,-10,-14,9,-2,1,6,22,17,11,25,20,14,14,12,5,7,-6,-5,-7,3,-1,-9,-4,3,-10,-3,-9,-9
1772819826.8453562,-18,-27,-19,-17,-11,-14,7,-4,0,5,22,16,10,25,21,14,15,13,5,8,-5,-5,-7,3,0,-8,-3,4,-10,-3,-9,-9
1772819826.8473094,-17,-28,-19,-17,-11,-15,6,-6,-1,4,21,15,9,25,21,15,16,14,6,9,-4,-6,-6,4,2,-7,-2,5,-9,-3,-9,-10
1772819826.8492625,-16,-28,-18,-17,-12,-15,3,-9,-3,2,20,13,9,24,21,16,17,14,6,9,-3,-6,-5,4,3,-7,0,6,-8,-3,-8,-10
1772819826.8512156,-15,-28,-17,-16,-13,-15,1,-11,-4,0,19,12,7,23,21,16,18,14,6,10,-2,-6,-5,5,4,-6,0,8,-7,-3,-8,-11
1772819826.8531687,-14,-27,-16,-16,-13,-15,-1,-13,-6,-1,18,10,6,22,21,16,18,14,6,10,-1,-6,-4,6,5,-5,1,9,-5,-2,-7,-11
1772819826.8551219,-13,-26,-14,-16,-13,-15,-3,-15,-7,-3,16,8,5,20,20,16,18,14,6,11,0,-6,-3,7,5,-5,1,11,-2,0,-7,-11
1772819826.857075,-13,-24,-12,-16,-13,-15,-5,-17,-8,-5,15,6,4,18,19,15,17,13,6,11,1,-6,-2,8,6,-4,2,14,0,1,-6,-11
1772819826.859028,-12,-23,-10,-16,-13,-14,-7,-17,-9,-6,13,4,3,16,17,14,16,12,6,11,2,-5,0,9,6,-3,2,16,2,3,-5,-10
1772819826.8609812,-12,-21,-8,-16,-12,-14,-9,-18,-9,-8,11,2,2,13,14,12,14,11,6,10,3,-4,2,10,7,-1,3,18,5,4,-4,-9
1772819826.8629344,-12,-20,-6,-17,-11,-14,-11,-18,-9,-9,9,0,1,10,11,10,11,9,6,9,4,-3,3,11,7,0,4,20,7,6,-3,-7
1772819826.8648875,-11,-19,-5,-17,-10,-13,-12,-17,-9,-10,7,-2,0,7,7,7,9,7,6,8,5,-2,5,12,8,2,5,22,9,7,-2,-5
1772819826.8668406,-11,-18,-4,-18,-8,-12,-13,-16,-9,-11,5,-3,-1,4,4,4,5,5,5,7,6,0,7,13,9,4,6,23,12,9,0,-3
1772819826.8687937,-10,-17,-4,-19,-7,-11,-14,-14,-8,-12,3,-4,-1,1,0,1,2,2,5,5,6,1,9,13,11,6,7,24,14,10,1,0
1772819826.8707469,-10,-17,-4,-19,-5,-10,-14,-13,-7,-12,2,-5,-1,-2,-3,-2,-2,0,4,3,6,3,10,14,12,8,8,24,16,11,3,2
1772819826.8727,-9,-16,-4,-20,-3,-9,-14,-10,-7,-12,0,-6,-2,-4,-6,-5,-5,-3,3,0,6,4,12,14,13,10,9,24,17,12,4,4
1772819826.874653,-8,-16,-4,-20,-1,-7,-14,-8,-6,-12,-1,-7,-2,-5,-8,-8,-9,-5,2,-2,6,4,12,14,14,12,10,24,19,12,6,6
1772819826.8766062,-7,-15,-4,-20,1,-5,-13,-6,-5,-12,-2,-7,-2,-6,-10,-10,-12,-7,1,-5,5,4,12,14,15,13,11,23,20,13,7,8
1772819826.8785594,-6,-13,-4,-21,2,-3,-12,-3,-4,-11,-3,-7,-2,-7,-11,-12,-14,-9,0,-7,4,4,12,14,15,13,11,23,21,13,8,9
1772819826.8805125,-5,-12,-5,-21,3,-2,-11,-1,-3,-9,-3,-6,-1,-7,-12,-13,-17,-11,-1,-9,3,4,11,14,15,13,11,22,21,14,8,9
1772819826.8824656,-5,-10,-5,-21,4,-1,-10,2,-2,-8,-3,-5,-1,-6,-12,-13,-18,-12,-3,-11,2,3,10,14,15,13,11,20,20,14,8,9
1772819826.8844187,-5,-7,-5,-21,4,0,-8,4,-1,-6,-3,-4,-1,-5,-11,-14,-19,-13,-4,-12,1,2,8,13,14,12,10,19,19,14,8,8
1772819826.8863719,-4,-5,-5,-21,5,1,-6,6,0,-4,-2,-3,0,-3,-10,-13,-19,-14,-5,-13,-1,1,6,12,12,11,9,18,17,14,8,7
1772819826.888325,-4,-2,-6,-21,4,1,-4,8,1,-3,-1,-1,1,-1,-8,-13,-19,-14,-5,-13,-2,0,4,11,11,9,8,16,15,15,7,6
1772819826.890278,-5,-1,-6,-21,4,0,-2,9,1,-1,0,1,1,1,-7,-12,-18,-13,-6,-12,-3,-1,3,10,9,8,7,15,12,15,6,4
1772819826.8922312,-5,1,-6,-20,3,-1,0,10,2,1,2,3,2,4,-5,-11,-16,-12,-6,-11,-4,-2,1,9,7,6,6,13,9,14,5,2
1772819826.8941844,-6,1,-6,-20,3,-2,2,10,3,3,3,5,2,6,-3,-9,-15,-11,-6,-9,-5,-3,-1,8,4,5,4,12,5,14,4,0
1772819826.8961375,-6,1,-7,-19,2,-4,4,10,3,5,4,7,3,9,-1,-8,-13,-10,-5,-7,-6,-3,-2,6,2,3,3,10,2,14,3,-1
1772819826.8980906,-7,0,-7,-18,1,-5,5,10,4,6,5,9,4,11,0,-7,-10,-8,-5,-5,-6,-4,-3,5,0,2,1,8,0,13,2,-3
1772819826.9000437,-7,-2,-6,-17,0,-6,7,9,4,7,7,11,4,13,2,-6,-8,-7,-4,-3,-6,-4,-4,3,-3,1,0,7,-2,12,1,-4
1772819826.9019969,-7,-4,-6,-15,-1,-6,8,8,4,8,7,12,5,15,4,-5,-6,-5,-3,-2,-7,-4,-4,2,-5,1,-2,5,-4,10,0,-4
1772819826.90395,-7,-7,-6,-14,-1,-7,9,8,5,8,8,13,6,16,5,-4,-5,-4,-2,0,-7,-4,-5,0,-7,0,-3,3,-4,8,0,-5
1772819826.905903,-7,-9,-5,-13,-1,-7,9,7,5,8,9,14,6,18,6,-3,-3,-2,-1,1,-8,-4,-5,-1,-8,0,-4,2,-4,6,0,-4
1772819826.9078562,-7,-11,-4,-12,-1,-6,8,6,5,8,9,14,6,19,7,-2,-2,-1,-1,1,-8,-4,-5,-3,-9,0,-4,1,-3,3,0,-4
1772819826.9098094,-7,-12,-3,-12,-1,-6,8,5,5,8,9,14,6,19,8,-1,-1,-1,0,1,-9,-4,-5,-5,-10,0,-4,0,-1,1,0,-3
1772819826.9117625,-6,-13,-3,-12,-1,-5,7,5,5,8,9,14,6,19,9,0,-1,0,0,1,-9,-3,-5,-6,-11,1,-4,-1,1,-1,0,-2
1772819826.9137156,-6,-12,-3,-13,-1,-4,6,4,5,7,9,13,6,18,9,0,0,0,0,0,-9,-3,-5,-7,-10,1,-4,-2,3,-3,1,-1
1772819826.9156687,-5,-11,-3,-14,0,-4,4,4,5,7,9,12,6,17,9,0,0,0,0,0,-10,-3,-4,-8,-10,2,-3,-2,5,-4,1,-1
1772819826.9176219,-5,-10,-3,-15,0,-3,3,3,5,6,8,11,6,16,9,1,0,0,1,-1,-9,-3,-4,-8,-9,2,-3,-1,6,-5,1,0
1772819826.919575,-5,-9,-4,-17,0,-3,2,3,4,6,8,10,6,15,9,1,0,0,1,-1,-9,-2,-4,-7,-8,3,-2,-1,7,-5,1,1
1772819826.921528,-5,-7,-5,-19,0,-4,1,3,4,5,7,9,5,13,8,1,1,1,1,0,-8,-2,-3,-6,-7,3,-2,0,7,-4,1,1
1772819826.9234812,-5,-7,-6,-21,0,-4,0,2,4,5,6,8,5,11,7,1,1,1,1,0,-6,-1,-2,-4,-5,3,-1,1,7,-2,1,1
1772819826.9254344,-6,-6,-8,-22,0,-5,-1,2,3,5,6,6,4,9,7,1,2,1,2,1,-4,-1,-1,-1,-4,3,-2,2,6,0,0,1
1772819826.9273875,-7,-7,-9,-23,-1,-6,-1,1,3,4,5,5,4,7,6,1,2,2,3,3,-2,0,0,2,-3,2,-2,4,5,2,-1,0
1772819826.9293406,-8,-8,-10,-23,-2,-8,-2,0,2,4,4,4,3,5,5,1,3,3,4,4,0,1,1,5,-2,2,-3,5,4,4,-2,0
1772819826.9312937,-9,-9,-10,-23,-2,-9,-2,-1,1,3,3,3,3,4,4,1,4,4,5,6,3,2,2,8,-1,2,-3,6,3,7,-3,-1
1772819826.9332469,-11,-10,-10,-23,-3,-9,-3,-2,1,2,2,2,3,2,3,1,5,5,7,8,5,3,4,11,-1,1,-4,6,2,8,-3,-2
1772819826.9352,-12,-12,-10,-22,-4,-10,-3,-3,0,1,1,1,2,1,3,1,6,6,8,9,7,3,5,14,-1,1,-5,7,1,9,-4,-2
1772819826.937153,-13,-12,-9,-22,-5,-10,-4,-3,-1,0,0,1,2,0,2,1,6,7,9,10,8,4,6,16,-1,1,-5,7,0,10,-4,-3
1772819826.9391062,-13,-13,-8,-21,-5,-10,-5,-4,-1,-1,-1,0,2,-1,1,1,7,7,10,11,9,5,7,17,-1,2,-5,7,0,9,-4,-3
1772819826.9410594,-14,-13,-7,-20,-5,-10,-6,-4,-1,-1,-1,0,2,-2,0,1,7,8,11,11,10,5,8,18,-1,2,-5,6,0,8,-4,-3
1772819826.9430125,-14,-13,-5,-20,-5,-10,-7,-4,-1,-2,-2,0,3,-2,-1,0,7,8,11,11,9,6,9,18,-1,3,-4,5,0,7,-4,-3
1772819826.9449656,-13,-12,-4,-19,-5,-10,-9,-4,-1,-2,-2,0,3,-2,-2,0,6,8,11,11,9,6,9,17,-1,3,-4,4,1,6,-3,-3
1772819826.9469187,-13,-11,-3,-19,-5,-9,-10,-3,0,-2,-2,1,4,-2,-3,-1,5,8,11,10,8,7,9,16,0,4,-3,3,1,4,-3,-2
1772819826.9488719,-12,-11,-3,-19,-4,-9,-11,-2,1,-2,-1,2,5,-2,-4,-1,4,7,11,8,6,7,9,15,0,4,-2,2,1,3,-2,-2
1772819826.950825,-11,-10,-3,-19,-4,-9,-12,-2,2,-1,-1,3,6,-1,-4,-2,3,7,10,7,5,7,9,13,0,5,-2,0,1,2,-2,-1
1772819826.952778,-10,-10,-3,-19,-3,-9,-12,-1,4,0,1,5,7,0,-4,-3,2,6,10,5,4,8,9,11,0,5,-1,-1,1,1,-2,0
1772819826.9547312,-10,-11,-5,-18,-3,-8,-12,0,5,1,3,7,8,2,-5,-3,1,6,9,4,2,8,8,9,0,5,-1,-3,1,0,-2,1
1772819826.9566844,-9,-12,-6,-17,-3,-9,-12,1,7,3,5,8,10,3,-4,-3,0,5,8,3,1,8,7,8,-1,5,-2,-4,0,0,-2,2
1772819826.9586375,-8,-14,-8,-15,-2,-9,-12,1,9,5,7,10,11,5,-4,-4,-1,5,8,1,0,8,6,6,-1,5,-2,-5,0,0,-3,2
1772819826.9605906,-7,-16,-10,-13,-2,-9,-11,2,10,6,9,12,11,7,-3,-4,-2,4,7,0,0,8,5,5,-2,4,-3,-6,-1,-1,-3,3
1772819826.9625437,-6,-19,-12,-10,-2,-9,-10,2,11,7,11,13,12,8,-2,-4,-2,4,7,-1,-1,8,4,4,-4,4,-4,-7,-2,-1,-4,3
1772819826.9644969,-5,-21,-13,-6,-1,-8,-9,2,11,9,13,14,12,10,-2,-4,-3,3,6,-2,-1,8,3,4,-5,3,-5,-8,-3,-1,-4,3
1772819826.96645,-4,-23,-14,-2,-1,-8,-8,2,11,9,15,15,12,11,-1,-4,-3,3,6,-3,-1,8,2,3,-7,2,-6,-7,-4,-2,-4,3
1772819826.968403,-3,-23,-14,2,-1,-7,-6,2,11,10,16,15,11,12,0,-4,-4,2,5,-3,-2,7,1,3,-9,2,-6,-7,-5,-2,-4,3
1772819826.9703562,-2,-23,-13,7,-1,-7,-5,2,11,10,16,14,10,12,1,-4,-4,1,4,-4,-2,6,0,3,-11,1,-7,-6,-6,-2,-4,3
1772819826.9723094,0,-22,-12,11,0,-6,-5,2,10,9,15,14,9,13,1,-4,-5,1,3,-5,-3,5,-1,3,-12,1,-7,-5,-7,-3,-4,3
1772819826.9742625,1,-20,-10,15,0,-5,-4,2,9,8,15,13,8,13,2,-4,-5,0,3,-6,-4,4,-2,2,-13,1,-6,-3,-7,-3,-4,2
1772819826.9762156,1,-17,-7,18,0,-4,-4,2,8,8,13,11,7,12,2,-4,-5,-1,2,-6,-5,3,-3,2,-14,0,-6,-2,-8,-3,-3,1
1772819826.9781687,2,-14,-5,21,0,-4,-4,2,7,7,12,10,6,12,3,-4,-5,-2,1,-7,-7,2,-3,2,-14,0,-5,0,-8,-3,-2,1
1772819826.9801219,2,-10,-3,23,0,-3,-5,2,6,6,10,9,5,11,3,-3,-5,-2,0,-7,-8,1,-4,1,-14,1,-4,1,-8,-3,-2,0
1772819826.982075,2,-6,0,24,0,-3,-5,2,5,5,8,8,4,11,3,-3,-5,-3,-1,-7,-9,0,-4,1,-13,1,-3,2,-8,-3,-1,0
1772819826.984028,1,-3,1,24,0,-3,-5,3,4,4,7,7,3,10,3,-2,-5,-3,-1,-7,-10,-1,-4,0,-13,2,-2,3,-8,-3,-1,-1
1772819826.9859812,0,0,2,24,0,-3,-6,3,4,3,5,6,2,9,4,-1,-4,-3,-2,-6,-11,-1,-4,-1,-12,2,-2,3,-7,-4,0,-2
1772819826.9879344,-1,1,3,23,-1,-3,-6,4,3,3,5,6,1,8,4,0,-3,-3,-2,-6,-11,-1,-4,-2,-11,3,-1,3,-6,-4,0,-2
1772819826.9898875,-2,2,3,22,-1,-3,-6,4,3,3,4,5,0,7,4,1,-2,-2,-2,-5,-11,-2,-3,-2,-11,3,-1,2,-5,-4,0,-3
1772819826.9918406,-3,1,3,21,-1,-3,-5,4,2,3,4,5,-1,6,4,2,0,-1,-1,-4,-10,-2,-3,-3,-10,4,-1,2,-4,-5,0,-3
1772819826.9937937,-4,0,2,20,-1,-3,-5,4,1,3,4,4,-1,5,5,3,1,0,-1,-2,-10,-2,-3,-3,-10,4,-1,0,-2,-6,0,-4
1772819826.9957469,-5,-2,0,19,-2,-3,-4,4,1,3,4,4,-1,4,5,5,3,1,0,-1,-9,-2,-2,-3,-10,3,-1,-1,-1,-6,-1,-5
1772819826.9977,-6,-4,-1,18,-2,-3,-4,4,0,2,5,4,-2,4,6,6,5,3,1,0,-7,-1,-2,-2,-10,3,-2,-2,0,-7,-2,-5
1772819826.999653,-7,-7,-2,18,-3,-3,-4,4,-1,2,6,4,-2,3,6,7,8,5,3,2,-6,-1,-1,-1,-10,2,-3,-3,1,-8,-3,-6
1772819827.0016062,-8,-10,-4,17,-4,-3,-3,3,-1,2,6,4,-1,3,7,8,10,7,4,3,-4,-1,-1,0,-11,1,-4,-4,2,-8,-4,-6
1772819827.0035594,-8,-12,-5,17,-4,-3,-3,2,-2,2,7,4,-1,3,7,9,11,9,6,5,-3,0,-1,1,-12,-1,-6,-5,2,-9,-5,-7
1772819827.0055125,-8,-15,-6,16,-5,-3,-4,1,-2,2,8,4,0,4,8,10,13,11,7,6,-1,0,-1,3,-12,-2,-7,-5,2,-10,-6,-7
1772819827.0074656,-8,-17,-7,16,-6,-3,-4,1,-2,2,8,4,1,4,8,11,14,13,9,7,0,1,-1,4,-14,-4,-9,-6,1,-10,-8,-7
1772819827.0094187,-8,-18,-8,16,-6,-3,-5,0,-2,1,9,5,2,5,9,11,15,15,10,8,0,1,-1,6,-15,-5,-10,-6,0,-10,-9,-7
1772819827.0113719,-8,-19,-8,15,-7,-3,-6,0,-2,1,9,6,3,6,9,11,16,16,11,8,1,2,-1,7,-15,-7,-11,-6,-1,-10,-10,-7
1772819827.013325,-7,-20,-8,15,-7,-3,-6,0,-2,1,9,6,4,7,9,11,16,16,12,9,1,3,-1,8,-16,-8,-12,-6,-2,-10,-10,-7
1772819827.015278,-7,-20,-8,16,-7,-3,-7,0,-1,1,9,7,5,7,9,10,15,16,13,9,0,3,-2,9,-16,-9,-13,-6,-3,-10,-11,-6
1772819827.0172312,-7,-19,-8,16,-6,-3,-8,0,0,1,8,7,5,7,9,9,15,16,13,9,0,4,-1,9,-16,-9,-13,-7,-4,-9,-11,-5
1772819827.0191844,-7,-18,-8,17,-6,-3,-9,1,1,2,7,7,6,7,8,8,13,15,13,9,-1,4,-1,9,-16,-8,-13,-7,-5,-8,-10,-4
1772819827.0211375,-7,-17,-7,17,-5,-3,-9,2,2,2,6,7,6,6,6,6,12,14,12,8,-1,4,-1,9,-15,-8,-12,-6,-6,-7,-10,-4
1772819827.0230906,-7,-16,-6,19,-4,-3,-9,3,2,2,4,6,6,5,4,4,10,12,11,7,-2,4,-1,9,-13,-7,-11,-6,-6,-5,-9,-3
1772819827.0250437,-7,-14,-5,20,-4,-3,-9,4,3,2,3,5,5,3,2,2,8,11,10,7,-3,4,0,8,-12,-5,-10,-6,-5,-4,-7,-2
1772819827.0269969,-7,-13,-5,22,-3,-2,-9,5,3,2,1,4,4,0,0,0,6,9,9,6,-4,3,0,8,-9,-4,-8,-5,-4,-3,-6,-1
1772819827.02895,-7,-11,-4,24,-2,-2,-8,5,3,2,-1,3,3,-2,-3,-2,4,7,7,5,-5,3,1,8,-7,-2,-6,-4,-3,-1,-5,-1
1772819827.030903,-6,-11,-3,26,-2,-1,-7,5,3,1,-3,2,3,-5,-5,-3,1,5,6,3,-5,3,2,8,-5,0,-3,-3,-1,0,-3,-1
1772819827.0328562,-5,-11,-3,28,-1,0,-6,6,3,1,-4,0,2,-7,-7,-5,-1,3,4,2,-6,2,2,8,-3,1,-1,-2,0,1,-1,0
1772819827.0348094,-4,-11,-2,31,-1,0,-5,5,3,0,-6,-1,1,-10,-9,-6,-3,1,3,0,-6,2,3,8,-1,3,1,-1,2,2,0,0
1772819827.0367625,-3,-12,-2,33,0,0,-4,5,3,0,-6,-2,1,-11,-11,-7,-4,-1,2,-1,-6,2,4,7,0,4,3,0,3,3,1,0
1772819827.0387156,-3,-13,-2,36,0,0,-3,5,3,-1,-7,-2,1,-12,-12,-8,-6,-2,1,-3,-6,2,4,7,1,5,4,0,4,3,2,0
1772819827.0406687,-2,-15,-2,38,1,0,-2,4,3,-1,-7,-2,1,-12,-12,-9,-7,-3,0,-5,-6,2,5,6,2,6,5,1,5,3,3,1
1772819827.0426219,-2,-16,-3,39,1,0,-2,4,3,-1,-6,-2,1,-12,-12,-9,-9,-4,0,-6,-6,2,5,6,2,7,6,1,5,3,4,1
1772819827.044575,-2,-18,-3,40,2,0,-1,4,3,-1,-5,-2,2,-11,-12,-9,-10,-5,0,-8,-6,3,6,5,1,7,6,1,4,2,4,2
1772819827.046528,-2,-18,-3,41,2,-1,-1,4,4,-1,-4,-1,2,-10,-12,-9,-10,-5,0,-9,-6,3,6,3,1,7,6,1,3,1,5,3
1772819827.0484812,-2,-18,-4,40,3,-1,-2,4,4,-1,-3,0,3,-8,-11,-8,-11,-5,1,-9,-6,4,6,2,0,7,6,0,2,0,5,3
1772819827.0504344,-3,-17,-4,38,3,-2,-2,5,4,-1,-1,1,3,-7,-10,-8,-11,-5,1,-10,-6,5,7,0,0,7,5,0,1,-1,4,4
1772819827.0523875,-3,-16,-4,35,4,-2,-2,5,5,0,0,2,4,-5,-9,-8,-11,-5,2,-10,-7,6,7,-2,-1,6,5,-1,-1,-2,4,4
1772819827.0543406,-4,-14,-4,31,4,-2,-2,5,5,0,2,3,4,-4,-8,-7,-11,-5,2,-10,-7,6,7,-3,-1,6,4,-1,-2,-3,4,4
1772819827.0562937,-5,-11,-4,27,4,-3,-2,6,5,1,2,3,4,-3,-7,-7,-10,-5,3,-10,-7,7,7,-4,-1,5,3,-1,-3,-3,3,4
1772819827.0582469,-5,-8,-3,22,3,-3,-2,6,5,1,3,3,4,-3,-6,-6,-10,-4,3,-10,-7,7,7,-5,-1,5,3,-1,-4,-3,2,4
1772819827.0602,-6,-4,-2,18,3,-3,-3,6,5,1,3,3,3,-3,-5,-5,-9,-4,4,-9,-7,7,7,-6,-1,5,2,0,-4,-3,2,4
1772819827.062153,-6,-1,-2,13,2,-3,-3,6,5,1,2,3,3,-3,-4,-4,-8,-3,4,-9,-6,7,7,-6,-1,4,2,0,-4,-3,1,4
1772819827.0641062,-6,2,-1,9,2,-3,-3,6,4,1,1,2,3,-4,-4,-4,-7,-3,4,-8,-6,7,7,-5,0,4,2,1,-2,-3,1,3
1772819827.0660594,-6,4,0,6,1,-4,-4,6,3,0,0,1,2,-4,-4,-3,-6,-2,4,-8,-6,6,7,-4,0,4,2,2,-1,-2,0,3
1772819827.0680125,-6,6,0,3,1,-4,-5,5,3,0,-2,0,2,-5,-3,-2,-5,-2,4,-8,-6,6,7,-3,0,5,2,3,1,-2,0,2
1772819827.0699656,-6,8,1,2,0,-4,-5,4,2,-1,-3,-1,1,-5,-3,-1,-4,-1,4,-7,-6,5,6,-1,1,5,3,4,3,-1,0,2
1772819827.0719187,-6,9,1,1,0,-5,-6,3,1,-2,-4,-2,1,-6,-3,0,-3,0,4,-7,-6,5,6,0,1,5,3,5,4,-1,0,2
1772819827.0738719,-6,10,0,2,-1,-5,-7,2,1,-3,-5,-2,1,-6,-2,1,-2,0,3,-7,-6,4,5,2,1,5,3,5,6,-1,0,2
1772819827.075825,-6,10,0,3,-1,-6,-8,1,0,-4,-6,-3,1,-6,-2,2,-1,1,3,-7,-6,3,5,3,1,6,3,5,7,-2,0,2
1772819827.077778,-7,9,-1,5,-1,-7,-8,0,0,-4,-6,-3,1,-5,-1,4,0,2,3,-6,-6,3,4,4,1,6,4,5,7,-3,0,2
1772819827.0797312,-7,8,-3,7,-1,-7,-8,-1,0,-4,-6,-3,1,-5,0,5,2,3,2,-6,-5,2,4,5,0,5,4,4,7,-4,0,2
1772819827.0816844,-8,6,-4,9,-2,-7,-8,-1,0,-4,-5,-2,1,-4,1,6,3,4,2,-5,-5,2,3,5,0,5,4,2,6,-6,0,2
1772819827.0836375,-9,4,-5,11,-2,-7,-8,-2,0,-3,-3,-1,2,-2,2,7,4,4,2,-4,-4,2,2,5,-1,4,3,1,4,-7,-1,1
1772819827.0855906,-10,1,-7,13,-2,-7,-7,-2,0,-2,-1,0,2,-1,3,9,6,5,2,-3,-4,1,2,5,-2,3,3,0,3,-9,-2,1
1772819827.0875437,-10,-1,-8,14,-2,-7,-5,-2,0,-1,1,2,3,0,4,10,7,6,2,-3,-4,1,1,5,-3,2,2,-2,1,-10,-2,1
1772819827.0894969,-11,-3,-8,14,-3,-6,-4,-2,0,0,4,3,3,1,5,10,8,7,2,-2,-3,0,0,4,-4,0,1,-3,0,-11,-3,0
1772819827.09145,-12,-5,-8,14,-3,-6,-2,-2,0,2,6,4,3,2,6,11,9,7,2,-1,-3,0,0,4,-5,-1,0,-4,-2,-12,-4,0
1772819827.093403,-12,-6,-8,13,-3,-5,-1,-2,0,3,8,5,3,3,7,11,9,7,2,0,-3,-1,-1,4,-6,-2,-1,-5,-3,-13,-5,-1
1772819827.0953562,-12,-6,-7,11,-4,-4,0,-2,0,4,10,5,3,3,7,11,9,7,2,1,-2,-1,-1,5,-7,-4,-2,-5,-3,-12,-5,-2
1772819827.0973094,-12,-6,-6,10,-4,-3,2,-2,0,5,11,5,3,3,7,11,9,7,2,1,-2,-1,-2,5,-7,-5,-3,-5,-4,-12,-6,-2
1772819827.0992625,-11,-4,-5,8,-4,-3,2,-2,0,6,12,5,2,2,7,10,9,7,2,1,-2,-2,-2,6,-8,-5,-4,-4,-4,-11,-6,-3
1772819827.1012156,-10,-3,-3,6,-4,-2,3,-2,0,6,12,5,2,2,7,9,8,6,2,1,-2,-2,-2,6,-8,-6,-5,-3,-4,-10,-6,-4
1772819827.1031687,-9,0,-2,4,-5,-2,3,-2,0,6,11,4,1,1,6,8,7,6,2,1,-1,-2,-2,7,-7,-6,-5,-2,-4,-9,-6,-4
1772819827.1051219,-8,2,-1,3,-5,-2,3,-2,0,6,10,3,1,0,5,7,6,5,2,1,-1,-2,-2,8,-7,-5,-5,-1,-4,-7,-6,-5
1772819827.107075,-6,4,0,3,-5,-3,3,-2,0,6,9,2,0,-1,4,5,5,4,2,1,-1,-1,-2,8,-6,-5,-4,0,-5,-6,-6,-5
1772819827.109028,-5,6,0,3,-4,-3,2,-2,0,5,7,1,0,-2,3,4,4,3,2,1,-1,-1,-1,9,-5,-4,-3,1,-5,-5,-5,-5
1772819827.1109812,-3,8,0,4,-4,-4,2,-2,0,4,6,0,0,-3,2,3,3,2,1,1,-1,-1,-1,8,-4,-3,-2,2,-5,-4,-5,-5
1772819827.1129344,-1,9,1,5,-4,-4,1,-1,0,3,5,-1,-1,-4,1,1,2,1,1,0,-1,-1,-1,8,-3,-2,0,3,-5,-4,-4,-5
1772819827.1148875,1,10,0,7,-4,-5,1,-1,0,3,3,-2,-1,-5,0,0,1,1,1,0,0,-1,-1,7,-2,-1,1,3,-5,-4,-4,-5
1772819827.1168406,2,10,0,8,-3,-5,1,0,0,2,2,-2,-1,-5,-2,-1,0,0,0,0,0,-1,-1,5,-1,0,2,3,-5,-4,-3,-4
1772819827.1187937,4,11,1,10,-3,-5,1,0,0,2,1,-3,-1,-6,-3,-2,-1,0,0,0,1,0,-1,4,0,1,3,3,-4,-4,-3,-4
1772819827.1207469,5,11,1,12,-3,-4,1,1,0,1,1,-3,-1,-6,-4,-4,-2,-1,0,0,1,0,0,2,1,2,3,3,-3,-5,-3,-4
1772819827.1227,6,11,2,13,-3,-3,1,1,-1,1,0,-4,-1,-7,-6,-5,-2,-1,1,0,2,0,0,0,1,2,3,2,-1,-6,-3,-4
1772819827.124653,6,11,3,14,-4,-2,2,1,-1,0,0,-4,-1,-7,-7,-6,-3,-1,1,0,3,0,0,-1,2,2,2,2,1,-7,-4,-3
1772819827.1266062,7,11,4,16,-4,-1,2,1,-1,0,0,-4,-1,-8,-8,-8,-3,0,2,0,4,1,1,-3,2,1,2,2,2,-8,-4,-3
1772819827.1285594,7,12,5,17,-5,1,2,1,-2,0,0,-5,-2,-8,-8,-9,-4,0,3,0,5,1,1,-4,2,1,1,1,3,-8,-5,-4
1772819827.1305125,7,12,6,18,-5,2,2,1,-2,0,0,-5,-2,-8,-9,-10,-4,0,4,0,6,2,2,-4,2,0,0,0,4,-8,-6,-4
1772819827.1324656,7,13,7,19,-6,3,2,1,-3,0,0,-5,-2,-8,-9,-10,-5,0,5,0,6,2,2,-4,1,-1,-2,0,5,-8,-6,-4
1772819827.1344187,6,14,8,21,-6,4,2,1,-3,0,0,-5,-2,-8,-9,-11,-5,-1,5,0,7,2,2,-4,1,-2,-3,-1,5,-7,-6,-5
1772819827.1363719,5,15,8,23,-6,5,2,1,-3,0,-1,-5,-2,-8,-9,-11,-6,-1,6,0,7,2,2,-4,1,-2,-4,-1,4,-6,-6,-5
1772819827.138325,4,16,8,26,-5,6,1,1,-3,0,-1,-5,-2,-8,-8,-11,-6,-2,6,-1,6,1,2,-3,0,-3,-5,-2,2,-5,-6,-5
1772819827.140278,3,17,8,30,-5,6,1,1,-3,1,-1,-5,-2,-7,-8,-11,-7,-2,5,-2,5,1,1,-3,0,-3,-5,-3,1,-3,-5,-6
1772819827.1422312,3,17,7,34,-4,6,1,2,-2,1,-1,-4,-2,-6,-7,-11,-7,-3,4,-3,4,0,0,-3,0,-4,-5,-3,-2,-2,-4,-6
1772819827.1441844,2,18,6,37,-3,6,1,3,-2,2,-1,-3,-2,-4,-6,-11,-8,-4,3,-4,2,-1,-1,-3,-1,-4,-5,-4,-4,0,-3,-7
1772819827.1461375,1,18,5,41,-2,6,1,3,-1,3,0,-2,-1,-3,-5,-10,-8,-5,2,-5,0,-2,-2,-4,-2,-4,-5,-5,-7,0,-3,-7
1772819827.1480906,0,18,4,44,-1,5,1,4,0,4,0,-1,0,-1,-3,-9,-8,-5,0,-6,-2,-2,-4,-4,-2,-4,-5,-6,-9,1,-2,-7
1772819827.1500437,-1,18,2,47,0,4,1,5,2,4,1,0,1,1,-2,-8,-8,-5,-1,-7,-4,-3,-5,-5,-3,-4,-5,-7,-11,0,-1,-7
1772819827.1519969,-1,17,1,49,0,3,1,6,3,5,2,1,2,3,-1,-7,-7,-4,-1,-7,-6,-3,-6,-6,-4,-4,-5,-8,-13,-1,-1,-7
1772819827.15395,-2,15,-1,51,1,1,1,6,4,5,2,3,3,5,0,-6,-6,-4,-2,-8,-7,-3,-7,-7,-5,-3,-5,-8,-14,-2,-1,-6
1772819827.155903,-3,12,-2,52,0,0,1,6,5,5,3,4,4,6,2,-4,-5,-2,-1,-7,-8,-3,-8,-8,-6,-3,-5,-9,-14,-4,-2,-6
1772819827.1578562,-3,9,-4,52,0,-2,1,6,5,5,3,5,4,8,3,-3,-3,-1,-1,-7,-8,-3,-8,-8,-6,-3,-5,-9,-13,-6,-2,-5
1772819827.1598094,-4,6,-5,51,-1,-3,1,6,5,5,4,5,5,8,4,-2,-1,1,0,-6,-8,-2,-8,-8,-7,-2,-6,-9,-12,-9,-3,-5
1772819827.1617625,-5,3,-5,50,-2,-5,0,5,5,4,4,5,5,9,4,-1,0,2,1,-5,-7,-1,-7,-8,-7,-2,-6,-9,-10,-10,-5,-4
1772819827.1637156,-5,0,-6,49,-3,-6,0,4,5,4,3,5,5,8,4,0,2,4,3,-4,-6,-1,-7,-7,-7,-2,-6,-9,-8,-12,-6,-4
1772819827.1656687,-5,-3,-6,48,-4,-7,-1,3,4,3,3,5,5,8,5,1,3,6,4,-3,-5,0,-6,-7,-6,-2,-7,-8,-6,-13,-7,-4
1772819827.1676219,-5,-5,-6,46,-4,-8,-1,3,3,2,2,4,4,7,4,2,5,7,5,-1,-4,0,-5,-6,-5,-1,-7,-8,-3,-13,-7,-4
1772819827.169575,-4,-6,-5,45,-5,-8,-1,2,2,1,1,3,3,5,4,2,5,7,6,0,-3,0,-4,-5,-3,-1,-7,-8,-2,-13,-8,-4
1772819827.171528,-4,-6,-4,43,-6,-7,-2,1,0,0,1,2,2,4,4,2,6,8,6,1,-2,0,-3,-4,-2,-2,-6,-7,0,-12,-8,-5
1772819827.1734812,-3,-6,-3,42,-6,-7,-1,1,-1,-1,0,0,1,3,3,1,6,8,6,1,-1,0,-2,-3,0,-2,-6,-6,0,-11,-7,-6
1772819827.1754344,-2,-5,-1,40,-6,-6,-1,0,-2,-2,-1,-1,-1,2,3,1,6,8,6,2,-1,-1,-2,-3,2,-2,-5,-6,0,-10,-7,-7
1772819827.1773875,-1,-3,0,39,-6,-5,-1,0,-3,-2,-1,-2,-2,1,2,0,6,8,6,2,-1,-2,-2,-2,4,-3,-4,-5,-1,-8,-6,-9
1772819827.1793406,0,-2,1,37,-6,-4,0,0,-4,-2,-2,-2,-3,0,2,0,6,7,6,3,-1,-2,-2,-2,5,-4,-4,-5,-2,-7,-6,-10
1772819827.1812937,1,0,2,35,-6,-2,1,0,-4,-2,-2,-3,-3,0,2,-1,6,7,5,3,-1,-3,-3,-2,6,-4,-3,-4,-4,-6,-5,-11
1772819827.1832469,1,2,3,34,-6,-1,1,1,-4,-1,-2,-3,-3,0,2,-1,5,6,5,3,-1,-4,-3,-1,7,-5,-2,-4,-5,-6,-5,-12
1772819827.1852,2,3,3,32,-6,-1,2,1,-4,-1,-1,-3,-3,0,3,-1,5,6,5,4,-1,-4,-4,-1,7,-6,-2,-3,-7,-6,-5,-13
1772819827.187153,2,4,2,30,-6,0,2,1,-4,0,-1,-2,-3,0,3,-1,5,6,4,4,-2,-4,-4,-1,7,-6,-2,-3,-7,-6,-5,-13
1772819827.1891062,1,5,1,29,-6,0,2,1,-3,0,-1,-2,-3,1,3,-1,5,6,4,5,-2,-4,-4,-1,6,-6,-2,-3,-8,-6,-5,-13
1772819827.1910594,0,5,0,27,-6,0,2,1,-3,1,-1,-1,-2,1,4,-1,5,5,4,5,-2,-4,-4,0,5,-6,-2,-2,-7,-7,-5,-12
1772819827.1930125,-1,5,-2,26,-6,0,2,1,-2,1,-1,-1,-2,1,4,0,5,5,4,5,-2,-3,-4,0,4,-6,-2,-2,-6,-7,-5,-11
1772819827.1949656,-2,4,-3,24,-6,-1,1,1,-2,1,-1,0,-1,1,4,0,5,5,5,5,-2,-3,-3,0,3,-5,-2,-2,-5,-7,-6,-9
1772819827.1969187,-3,4,-5,23,-6,-1,0,1,-1,1,-2,0,-1,0,4,0,5,5,5,5,-2,-2,-3,1,1,-4,-2,-1,-4,-8,-6,-7
1772819827.1988719,-3,4,-5,23,-5,-1,0,1,-1,1,-2,0,-1,0,3,1,5,4,5,5,-2,-1,-2,1,0,-3,-2,-1,-2,-8,-6,-6
1772819827.200825,-4,3,-6,22,-5,-1,-1,1,-1,1,-3,0,-1,0,3,1,5,4,5,5,-2,0,-1,1,-1,-2,-2,-1,-1,-8,-6,-4
1772819827.202778,-5,2,-6,22,-5,-1,-1,1,-1,0,-4,0,-2,-1,2,1,4,4,5,4,-2,0,0,2,-1,-2,-2,-1,1,-8,-6,-3
1772819827.2047312,-5,2,-6,23,-5,-1,-1,1,-2,0,-6,0,-2,-2,2,1,3,3,5,3,-1,1,1,2,-1,-1,-1,-1,1,-8,-6,-2
1772819827.2066844,-5,1,-5,23,-5,0,-1,1,-2,-1,-7,0,-3,-2,1,1,3,3,5,3,-1,1,2,3,-1,-1,-1,0,2,-8,-5,-2
1772819827.2086375,-4,1,-4,24,-5,1,-1,1,-3,-1,-8,-1,-3,-3,0,1,2,2,5,2,0,1,3,4,0,0,0,0,2,-8,-5,-2
1772819827.2105906,-4,0,-3,25,-5,1,0,1,-4,-2,-9,-1,-4,-3,0,0,1,1,5,2,1,1,4,4,0,0,1,0,1,-8,-5,-3
1772819827.2125437,-4,0,-2,26,-5,2,0,1,-5,-2,-10,-1,-4,-4,-1,-1,0,1,5,1,1,1,5,5,1,0,1,0,1,-8,-4,-3
1772819827.2144969,-3,0,-1,27,-5,3,1,2,-6,-3,-10,-2,-5,-4,-1,-1,0,0,5,1,2,1,5,6,2,-1,2,0,1,-9,-4,-5
1772819827.21645,-3,0,0,28,-5,3,1,2,-6,-3,-11,-2,-5,-4,-2,-2,-1,0,6,1,3,0,6,7,3,-1,3,0,0,-9,-4,-6
1772819827.218403,-3,1,1,29,-5,3,1,3,-7,-3,-11,-2,-5,-4,-2,-3,-2,-1,6,1,3,0,6,7,4,-1,3,0,0,-10,-3,-7
1772819827.2203562,-3,2,1,29,-5,3,1,3,-7,-4,-10,-2,-5,-4,-2,-3,-2,-1,6,2,3,0,6,7,4,-2,3,0,0,-11,-3,-7
1772819827.2223094,-2,2,1,29,-5,2,1,4,-8,-4,-10,-2,-5,-3,-1,-3,-2,-1,6,2,3,-1,6,7,4,-2,4,-1,0,-11,-3,-8
1772819827.2242625,-2,3,1,28,-4,2,0,4,-7,-4,-9,-2,-4,-3,-1,-3,-2,-1,7,2,3,-1,5,7,4,-3,3,-2,0,-12,-2,-8
1772819827.2262156,-2,3,1,26,-3,1,0,5,-7,-4,-8,-2,-3,-2,0,-3,-2,-1,7,3,3,-1,5,6,3,-3,3,-3,0,-13,-2,-7
1772819827.2281687,-2,3,1,25,-3,0,-1,6,-6,-3,-6,-1,-2,0,1,-2,-1,0,7,3,2,-1,4,5,1,-3,2,-4,-1,-14,-2,-7
1772819827.2301219,-2,3,0,23,-2,-1,-1,6,-5,-3,-5,0,-1,1,3,-1,0,0,7,4,1,-1,3,4,-1,-4,1,-5,-1,-14,-2,-6
1772819827.232075,-2,2,-1,20,-1,-2,-1,7,-4,-2,-3,1,0,3,4,0,1,1,7,4,0,-1,1,3,-3,-5,0,-6,-2,-15,-2,-5
1772819827.234028,-1,0,-1,18,-1,-2,-1,7,-3,-1,-1,3,1,5,6,1,2,2,6,4,-2,-1,0,2,-4,-5,-1,-7,-2,-15,-3,-4
1772819827.2359812,-1,-2,-2,15,-1,-2,-1,8,-2,0,0,4,2,7,7,2,3,2,6,4,-3,0,-1,0,-6,-6,-2,-8,-3,-14,-3,-3
1772819827.2379344,-1,-4,-3,12,-1,-2,0,8,-1,1,2,6,3,9,8,4,3,3,5,3,-4,-1,-2,-1,-7,-7,-3,-8,-4,-14,-4,-3
1772819827.2398875,-1,-6,-3,10,-1,-1,1,8,1,2,3,8,3,11,9,5,4,3,4,3,-6,-1,-4,-1,-8,-7,-4,-8,-5,-13,-5,-2
1772819827.2418406,-1,-8,-4,8,-1,-1,2,8,1,3,4,9,4,12,10,6,4,4,3,2,-7,-1,-5,-2,-8,-8,-4,-7,-6,-12,-6,-3
1772819827.2437937,-1,-9,-4,6,-2,1,3,8,2,4,5,10,4,13,11,6,5,4,2,2,-8,-1,-5,-2,-7,-8,-5,-5,-6,-11,-6,-3
1772819827.2457469,-1,-10,-4,5,-3,2,4,7,2,4,5,10,4,13,11,7,5,4,1,1,-8,-2,-6,-2,-6,-8,-4,-4,-7,-10,-7,-4
1772819827.2477,-1,-11,-3,4,-4,3,5,7,3,4,5,10,3,13,11,7,5,4,1,1,-9,-2,-6,-2,-5,-8,-4,-2,-7,-9,-7,-4
1772819827.249653,-1,-11,-2,3,-5,4,5,5,2,4,4,10,3,13,11,7,5,4,0,1,-9,-2,-6,-2,-3,-8,-3,0,-7,-8,-7,-5
1772819827.2516062,-2,-11,-1,2,-6,4,6,4,2,4,4,9,3,12,11,7,6,4,0,2,-8,-3,-6,-2,-2,-8,-3,1,-7,-8,-8,-6
1772819827.2535594,-2,-10,0,0,-7,5,5,1,1,3,3,8,3,11,11,8,7,5,0,3,-7,-3,-6,-2,0,-7,-2,2,-7,-8,-8,-7
1772819827.2555125,-3,-10,1,-1,-9,4,5,-1,0,2,2,7,3,11,11,8,8,6,1,4,-5,-3,-5,-1,1,-7,-2,3,-7,-8,-8,-8
1772819827.2574656,-4,-9,1,-3,-10,4,5,-3,0,2,2,6,3,10,11,9,9,7,2,6,-4,-2,-4,-1,3,-7,-2,3,-7,-9,-8,-9
1772819827.2594187,-5,-9,1,-5,-11,3,4,-6,-1,1,2,5,3,9,11,10,11,8,4,7,-1,-2,-3,0,3,-8,-2,2,-7,-10,-9,-9
1772819827.2613719,-6,-9,1,-7,-12,2,3,-9,-2,0,2,5,4,9,12,11,13,10,6,10,1,-1,-2,1,4,-8,-2,1,-7,-11,-10,-10
1772819827.263325,-6,-9,1,-10,-13,0,2,-11,-3,0,3,4,4,8,13,12,15,12,8,12,3,-1,0,2,3,-9,-3,0,-6,-12,-10,-10
1772819827.265278,-7,-10,0,-12,-13,-1,2,-13,-3,-1,4,4,5,8,14,14,17,14,10,13,6,0,0,3,3,-9,-4,-1,-6,-13,-11,-10
